neuroNicle FX2
D3F25R12
Bluetooth SPP
2023년 3월 27일 월요일
오전 10:14
time interval = 4msec
EEG1	EEG2	PPG	sdPPG	pulse	peak_interval(msec)
24.702	13.956	16371	12914	0	316
23.008	12.910	16370	12972	0	316
20.627	12.369	16369	13043	0	316
18.320	12.081	16368	13159	0	316
20.303	13.343	16369	13372	0	316
25.171	16.408	16370	13655	0	316
28.237	17.057	16370	13965	0	316
26.217	14.136	16371	14262	0	316
18.031	4.652	16372	14552	0	316
6.131	-3.606	16374	14849	0	316
0.216	-9.052	16375	15146	0	316
-2.056	-8.078	16377	15455	0	316
-2.308	-6.167	16379	15759	0	316
-6.671	-6.924	16381	16023	0	316
-13.631	-16.300	16383	16249	0	316
-22.034	-27.047	16384	16409	0	316
-25.856	-33.574	16384	16500	0	316
-25.965	-34.295	16385	16558	0	316
-23.657	-29.787	16386	16577	0	316
-22.503	-26.109	16384	16378	0	316
-20.736	-25.099	16381	15914	0	316
-19.654	-28.633	16378	15501	0	316
-19.365	-31.374	16375	15320	0	316
-21.421	-32.925	16375	15307	0	316
-23.044	-31.085	16373	15339	0	316
-23.765	-28.597	16372	15314	0	316
-21.854	-23.981	16370	15230	0	316
-16.877	-21.745	16368	15172	0	316
-12.730	-19.510	16366	15191	0	316
-9.304	-17.129	16365	15217	0	316
-4.904	-14.425	16363	15217	0	316
-2.452	-12.189	16361	15191	0	316
-0.541	-10.025	16361	15217	0	316
-1.587	-10.999	16359	15301	0	316
-3.390	-11.071	16358	15410	0	316
-4.291	-9.088	16356	15449	0	316
-0.288	-2.813	16354	15397	0	316
5.157	3.137	16353	15372	0	316
11.287	9.232	16351	15462	0	316
15.507	11.107	16352	15675	0	316
17.634	11.287	16352	15939	0	316
17.562	10.386	16352	16172	0	316
15.651	10.710	16353	16339	0	316
12.405	12.766	16353	16467	0	316
7.898	13.992	16353	16584	0	316
6.563	17.490	16354	16700	0	316
8.042	19.546	16354	16822	0	316
11.396	20.087	16354	16919	0	316
12.045	20.700	16355	17003	0	316
10.891	19.834	16355	17080	0	316
7.465	19.329	16356	17132	0	316
6.563	21.349	16356	17132	0	316
7.357	25.063	16356	17093	0	316
11.468	30.508	16356	17048	0	316
14.894	33.790	16355	16990	0	316
16.949	36.062	16355	16900	0	316
14.641	34.836	16354	16777	0	316
8.042	32.744	16354	16654	0	316
-1.010	31.518	16352	16545	0	316
-10.278	30.004	16350	16384	0	316
-16.913	27.984	16348	16165	0	316
-19.365	23.801	16345	15901	0	316
-20.050	18.860	16341	15546	0	316
-17.851	17.706	16336	15088	0	316
-14.064	19.942	16330	14675	0	316
-7.393	26.037	16326	14430	0	316
-3.101	28.597	16323	14320	0	316
-2.128	28.056	16318	14217	0	316
-6.852	19.618	16312	13972	0	316
-14.389	10.097	16307	13688	0	316
-19.618	3.606	16302	13533	0	316
-22.863	1.154	16298	13546	0	316
-22.683	1.226	16295	13720	0	316
-23.188	-0.288	16293	14004	0	316
-26.181	-4.508	16291	14288	0	316
-27.263	-9.340	16288	14514	0	316
-28.309	-12.550	16287	14759	0	316
-25.712	-14.208	16286	15068	0	316
-24.414	-21.024	16286	15397	0	316
-24.594	-41.327	16284	15688	0	316
-25.893	-72.773	16284	15952	0	316
-28.345	-104.291	16284	16204	0	316
-28.056	-119.041	16284	16454	0	316
-27.804	-107.501	16284	16719	0	316
-27.876	-78.615	16284	16977	0	316
-28.489	-50.775	16285	17177	0	316
-29.499	-41.327	16286	17338	0	316
-28.669	-49.261	16286	17461	0	316
-24.594	-62.099	16286	17538	0	316
-18.392	-69.672	16286	17577	0	316
-11.468	-72.701	16286	17590	0	316
-6.383	-77.101	16286	17616	0	316
-3.210	-90.047	16286	17648	0	316
-1.334	-107.681	16286	17661	0	316
0.216	-131.338	16287	17674	0	316
6.599	-166.715	16288	17751	0	316
10.891	-217.743	16289	17803	0	316
13.487	-272.449	16288	17687	0	316
10.783	-306.167	16286	17396	0	316
7.032	-302.452	16284	17067	0	316
3.282	-270.105	16282	16822	0	316
0.829	-247.890	16281	16687	0	316
1.118	-260.656	16281	16590	0	316
-0.938	-295.132	16279	16454	0	316
-5.085	-309.160	16276	16262	0	316
-8.547	-265.489	16275	16094	0	316
-11.107	-171.799	16274	16030	0	316
-13.163	-75.947	16273	16036	0	316
-13.776	-24.414	16272	16004	0	316
-14.317	-23.621	16270	15920	0	316
-13.415	-43.130	16268	15862	0	316
-13.595	-45.871	16268	15868	0	316
-13.668	-19.329	16267	15920	0	316
-14.425	18.824	16266	15920	0	316
-15.362	43.238	16261	15701	0	316
-15.435	50.234	16257	15223	0	316
-15.326	44.789	16251	14726	0	316
-15.651	45.114	16246	14430	0	316
-15.182	51.965	16242	14294	0	316
-12.622	65.994	16238	14223	0	316
-7.789	74.793	16235	14249	0	316
0.685	78.471	16232	14391	0	316
6.780	75.911	16231	14617	0	316
10.350	70.321	16230	14920	0	316
10.097	66.174	16231	15288	0	316
9.989	64.082	16232	15714	0	316
10.530	65.380	16233	16159	0	316
14.930	67.328	16236	16577	0	316
21.349	71.836	16238	17003	0	316
27.587	73.494	16241	17435	0	316
33.033	73.783	16245	17893	0	316
36.098	74.684	16248	18306	0	316
38.190	74.865	16252	18571	0	316
42.806	77.569	16254	18713	0	316
47.602	82.257	16258	18880	0	316
52.723	83.411	16262	19132	0	316
53.047	82.834	16267	19377	0	316
51.136	77.281	16270	19545	0	316
44.537	69.780	16275	19642	0	316
39.849	64.226	16280	19751	0	316
36.026	59.574	16286	19932	0	316
33.934	56.617	16291	20119	0	316
32.203	53.516	16296	20184	0	316
27.840	50.234	16300	20067	0	316
24.666	47.458	16304	19906	0	316
21.313	43.851	16309	19816	0	316
18.536	42.373	16314	19803	0	316
16.949	39.488	16319	19816	1	612
14.100	34.692	16326	19803	0	612
9.881	28.994	16331	19777	0	612
5.986	24.486	16337	19758	0	612
2.921	22.322	16343	19758	0	612
2.128	22.863	16350	19751	0	612
1.334	23.512	16355	19693	0	612
0.072	21.926	16361	19590	0	612
-3.246	17.129	16367	19493	0	612
-7.753	13.235	16373	19403	0	612
-11.360	11.504	16379	19313	0	612
-13.668	13.668	16384	19184	0	612
-13.199	15.362	16389	19029	0	612
-10.674	17.887	16394	18867	0	612
-6.131	19.185	16399	18687	0	612
-0.541	19.798	16402	18371	0	612
3.678	20.844	16403	17790	0	612
6.708	20.483	16401	16964	0	612
7.789	15.507	16400	16139	0	612
9.556	-1.118	16399	15494	0	612
9.665	-37.216	16397	15030	0	612
13.343	-91.525	16396	14655	0	612
18.608	-153.300	16395	14320	0	612
24.775	-201.479	16393	14010	0	612
34.259	-214.281	16391	13707	0	612
43.707	-193.220	16389	13436	0	612
55.211	-154.922	16388	13294	0	612
66.246	-116.625	16388	13326	0	612
79.228	-84.385	16388	13475	0	612
94.014	-47.999	16388	13636	0	612
108.907	7.140	16389	13772	0	612
125.532	76.199	16388	13914	0	612
141.147	140.786	16389	14101	0	612
155.031	184.097	16389	14326	0	612
164.371	202.092	16391	14539	0	612
167.147	205.049	16391	14694	0	612
162.820	208.042	16391	14836	0	612
153.155	213.091	16393	15023	0	612
141.399	220.050	16394	15262	0	612
132.816	220.303	16394	15501	0	612
128.561	217.021	16396	15636	0	612
124.702	210.350	16395	15649	0	612
119.546	204.219	16395	15604	0	612
109.340	196.718	16393	15584	0	612
96.286	188.857	16393	15572	0	612
85.106	181.825	16392	15546	0	612
80.166	175.875	16391	15533	0	612
79.012	169.924	16391	15559	0	612
82.041	164.984	16390	15584	0	612
82.979	157.447	16389	15578	0	612
82.402	151.028	16387	15501	0	612
80.779	145.835	16384	15301	0	612
79.661	142.914	16381	14933	0	612
81.176	141.688	16375	14526	0	612
85.287	140.317	16370	14210	0	612
89.145	137.721	16366	14017	0	612
96.646	136.278	16363	13952	0	612
103.210	134.656	16359	13978	0	612
110.602	132.672	16355	13959	0	612
114.930	129.931	16351	13855	0	612
115.435	124.594	16346	13823	0	612
111.107	118.716	16344	13946	0	612
107.212	114.497	16341	14178	0	612
105.554	112.477	16339	14391	0	612
108.619	113.451	16337	14552	0	612
111.323	112.550	16335	14720	0	612
111.396	107.176	16333	14952	0	612
105.301	100.577	16332	15217	0	612
96.971	93.401	16330	15462	0	612
89.831	89.470	16329	15643	0	612
84.602	88.532	16325	15655	0	612
80.310	87.450	16322	15481	0	612
76.307	86.260	16316	15262	0	612
68.662	85.034	16314	15178	0	612
59.142	85.215	16309	15165	0	612
48.323	86.982	16305	15101	0	612
37.865	88.424	16301	15043	0	612
24.883	86.369	16298	15107	0	612
10.169	81.067	16296	15314	0	612
-5.193	72.737	16296	15610	0	612
-20.411	64.118	16295	15997	0	612
-32.420	59.574	16297	16416	0	612
-38.154	57.050	16298	16842	0	612
-39.272	57.230	16300	17229	0	612
-40.570	58.637	16300	17545	0	612
-40.101	57.591	16302	17809	0	612
-38.695	56.149	16303	18016	0	612
-33.502	54.850	16303	18074	0	612
-27.263	54.345	16304	18016	0	612
-19.870	53.300	16304	17990	0	612
-17.562	51.785	16304	18067	0	612
-16.372	50.090	16305	18158	0	612
-15.254	48.143	16305	18125	0	612
-9.881	46.809	16305	17971	0	612
-3.787	47.674	16305	17835	0	612
4.327	49.080	16305	17777	0	612
11.323	51.857	16305	17725	0	612
17.887	53.336	16304	17558	0	612
21.854	53.011	16303	17274	0	612
22.863	49.657	16302	17022	0	612
24.089	45.005	16301	16913	0	612
25.135	40.858	16302	16913	0	612
29.463	40.534	16302	16932	0	612
36.567	40.894	16301	16913	0	612
42.986	40.750	16301	16816	0	612
46.953	40.642	16299	16596	0	612
49.838	37.793	16297	16326	0	612
52.903	36.278	16295	16126	0	612
58.132	35.810	16294	16017	0	612
62.784	33.970	16293	15952	0	612
63.758	30.004	16293	15946	0	612
60.296	25.027	16292	15997	0	612
51.424	18.392	16291	16049	0	612
42.914	12.514	16291	16062	0	612
37.577	8.294	16290	16068	0	612
35.557	4.580	16290	16094	0	612
35.918	3.534	16290	16139	0	612
34.547	1.659	16289	16178	0	612
32.348	2.885	16289	16191	0	612
27.912	3.246	16286	16049	0	612
25.496	2.849	16282	15662	0	612
21.204	2.200	16277	15191	0	612
19.978	0.036	16274	14881	0	612
17.057	-1.947	16271	14804	0	612
14.533	-4.400	16268	14810	0	612
9.268	-5.950	16265	14707	0	612
5.734	-11.540	16260	14501	0	612
0.938	-16.661	16256	14314	0	612
-3.029	-23.549	16252	14255	0	612
-7.429	-30.869	16251	14378	0	612
-13.848	-36.387	16249	14617	0	612
-20.555	-40.534	16247	14830	0	612
-29.859	-43.130	16245	14959	0	612
-36.964	-45.222	16244	15133	0	612
-47.025	-46.340	16244	15423	0	612
-56.257	-49.189	16245	15804	0	612
-66.390	-53.696	16246	16210	0	612
-75.694	-57.627	16246	16571	0	612
-83.808	-61.450	16249	16880	0	612
-93.437	-64.154	16250	17171	0	612
-102.885	-67.724	16252	17435	0	612
-111.864	-72.593	16252	17609	0	612
-121.060	-77.930	16253	17693	0	612
-127.083	-83.448	16253	17687	0	612
-130.977	-85.215	16252	17519	0	612
-133.682	-85.828	16250	17209	0	612
-135.413	-85.611	16248	16951	0	612
-137.865	-86.044	16246	16790	0	612
-137.613	-88.568	16245	16693	0	612
-137.973	-92.138	16244	16667	0	612
-137.252	-95.348	16244	16680	0	612
-137.829	-98.305	16244	16713	0	612
-137.721	-99.495	16244	16713	0	612
-139.380	-100.361	16242	16635	0	612
-137.649	-100.036	16241	16500	0	612
-131.699	-95.600	16239	16359	0	612
-122.683	-90.588	16237	16172	0	612
-112.658	-84.349	16234	15965	0	612
-101.262	-79.841	16232	15855	0	612
-92.499	-80.130	16231	15868	0	612
-86.188	-80.310	16231	15881	0	612
-81.933	-80.779	16230	15926	0	612
-79.481	-78.796	16231	16120	0	612
-77.101	-75.514	16233	16487	0	612
-72.990	-73.350	16237	16977	0	612
-68.806	-71.655	16240	17461	0	612
-61.882	-71.259	16244	17861	0	612
-57.411	-69.564	16249	18216	0	612
-54.814	-67.400	16253	18500	0	612
-53.408	-65.633	16257	18719	0	612
-53.300	-63.686	16262	18932	0	612
-51.965	-60.981	16266	19138	0	612
-48.179	-59.502	16272	19325	0	612
-42.770	-55.968	16277	19545	0	612
-37.072	-51.136	16283	19790	0	612
-31.518	-46.809	16289	20022	0	612
-28.561	-42.337	16296	20222	0	612
-26.470	-39.849	16302	20332	0	612
-27.515	-39.452	16307	20267	0	612
-29.931	-43.599	16311	20080	0	612
-31.158	-46.772	16316	19893	0	612
-32.528	-47.890	16321	19764	0	612
-30.761	-46.881	16326	19674	1	728
-27.876	-41.760	16332	19603	0	728
-24.162	-36.964	16337	19519	0	728
-20.772	-33.069	16342	19403	0	728
-18.933	-30.040	16347	19254	0	728
-16.877	-26.974	16352	19113	0	728
-16.661	-25.207	16357	18977	0	728
-18.067	-25.712	16361	18796	0	728
-20.087	-27.768	16365	18551	0	728
-21.096	-30.905	16369	18306	0	728
-20.339	-31.158	16373	18093	0	728
-17.310	-30.040	16376	17854	0	728
-10.963	-27.804	16379	17487	0	728
-5.193	-27.479	16379	16996	0	728
1.154	-26.109	16380	16558	0	728
5.481	-22.106	16381	16249	0	728
9.448	-14.461	16382	15984	0	728
8.475	-5.950	16382	15655	0	728
4.364	0.685	16381	15243	0	728
-2.200	2.308	16380	14855	0	728
-6.311	1.154	16379	14584	0	728
-8.366	-0.577	16378	14346	0	728
-7.068	-0.361	16376	14055	0	728
-8.330	-0.649	16373	13739	0	728
-13.884	-3.101	16371	13501	0	728
-24.630	-9.088	16369	13359	0	728
-35.557	-17.598	16368	13346	0	728
-41.543	-24.847	16366	13417	0	728
-41.507	-26.938	16366	13526	0	728
-36.459	-22.611	16366	13701	0	728
-30.508	-13.415	16366	13959	0	728
-27.948	-5.554	16368	14288	0	728
-30.436	-2.380	16369	14623	0	728
-33.682	-5.626	16370	14894	0	728
-37.505	-11.251	16371	15133	0	728
-37.829	-15.146	16373	15372	0	728
-37.108	-14.389	16373	15591	0	728
-35.810	-12.153	16374	15759	0	728
-35.774	-10.494	16375	15862	0	728
-35.269	-13.848	16375	15952	0	728
-32.420	-17.923	16376	16043	0	728
-26.073	-19.221	16375	16081	0	728
-16.877	-15.651	16375	16049	0	728
-9.484	-8.979	16374	15991	0	728
-3.931	-2.957	16373	15939	0	728
-2.056	-2.921	16373	15881	0	728
-1.623	-6.924	16369	15694	0	728
2.272	-12.441	16367	15417	0	728
10.169	-13.848	16364	15178	0	728
17.670	-7.789	16360	14959	0	728
24.162	-1.010	16356	14694	0	728
27.912	3.823	16352	14430	0	728
26.830	4.364	16347	14204	0	728
26.109	0.541	16344	14081	0	728
24.414	-3.967	16341	14133	0	728
24.919	-7.753	16339	14314	0	728
24.089	-7.970	16338	14533	0	728
26.181	-7.789	16337	14759	0	728
29.643	-3.895	16336	15036	0	728
34.475	1.731	16337	15384	0	728
37.000	6.455	16337	15759	0	728
38.731	7.212	16338	16126	0	728
38.983	6.022	16340	16448	0	728
41.976	4.364	16341	16764	0	728
47.890	3.967	16344	17087	0	728
53.696	6.131	16346	17409	0	728
54.345	6.058	16348	17674	0	728
48.684	3.246	16349	17809	0	728
40.353	-1.118	16349	17771	0	728
34.151	-5.590	16348	17609	0	728
34.331	-7.068	16348	17461	0	728
36.675	-6.455	16347	17377	0	728
40.173	-5.445	16348	17319	0	728
41.075	-3.823	16348	17280	0	728
40.570	-1.587	16348	17229	0	728
38.478	2.993	16347	17113	0	728
38.839	7.248	16345	16861	0	728
39.740	10.061	16343	16545	0	728
42.301	9.809	16342	16346	0	728
45.150	6.419	16340	16275	0	728
46.412	3.967	16338	16159	0	728
44.537	3.246	16336	15939	0	728
39.308	3.029	16334	15759	0	728
34.728	1.731	16333	15714	0	728
32.853	0.974	16332	15746	0	728
33.393	-0.721	16330	15733	0	728
35.665	-2.200	16329	15655	0	728
34.547	-4.796	16326	15546	0	728
28.309	-9.016	16322	15281	0	728
19.365	-14.100	16317	14862	0	728
11.756	-13.379	16312	14468	0	728
10.350	-8.619	16305	14088	0	728
13.091	1.587	16300	13765	0	728
16.589	9.701	16295	13675	0	728
18.860	11.684	16293	13810	0	728
20.844	9.701	16290	14010	0	728
21.998	4.796	16288	14217	0	728
24.450	3.967	16286	14468	0	728
26.722	5.734	16285	14784	0	728
27.155	8.366	16284	15139	0	728
23.116	7.898	16284	15481	0	728
17.923	0.829	16284	15772	0	728
11.035	-10.025	16284	16049	0	728
6.275	-21.349	16284	16352	0	728
5.481	-28.633	16285	16635	0	728
11.468	-32.708	16286	16867	0	728
20.736	-30.617	16286	17054	0	728
27.047	-28.237	16286	17216	0	728
28.814	-24.234	16287	17338	0	728
24.089	-20.519	16287	17403	0	728
17.346	-17.959	16287	17429	0	728
11.648	-17.995	16287	17435	0	728
8.475	-20.627	16287	17435	0	728
3.210	-23.476	16287	17442	0	728
-0.325	-25.784	16287	17461	0	728
-4.544	-22.503	16288	17493	0	728
-4.255	-14.136	16289	17571	0	728
-1.479	-8.078	16290	17687	0	728
0.397	-5.301	16290	17713	0	728
-2.705	-9.701	16289	17551	0	728
-9.160	-16.985	16288	17254	0	728
-16.949	-20.591	16286	16977	0	728
-18.175	-15.939	16286	16796	0	728
-13.992	-5.265	16284	16674	0	728
-8.186	2.488	16282	16487	0	728
-3.931	4.400	16279	16191	0	728
-3.426	-0.793	16276	15901	0	728
-5.950	-6.275	16274	15720	0	728
-5.986	-7.465	16272	15636	0	728
-4.291	-2.813	16270	15565	0	728
-1.334	2.560	16268	15468	0	728
1.947	4.472	16266	15384	0	728
3.859	2.344	16265	15359	0	728
5.481	-3.426	16263	15391	0	728
6.563	-10.783	16261	15449	0	728
6.924	-18.969	16260	15501	0	728
5.734	-24.125	16259	15552	0	728
4.580	-24.017	16258	15630	0	728
5.806	-19.762	16258	15739	0	728
7.393	-12.477	16257	15862	0	728
9.052	-8.763	16257	15972	0	728
9.629	-13.523	16256	16081	0	728
7.609	-22.827	16255	16172	0	728
6.527	-29.499	16255	16230	0	728
7.285	-31.266	16254	16294	0	728
9.989	-25.856	16254	16359	0	728
11.540	-18.608	16253	16339	0	728
12.694	-13.307	16250	16217	0	728
13.487	-14.317	16248	16055	0	728
12.622	-17.959	16246	15888	0	728
12.658	-26.542	16244	15772	0	728
11.396	-37.613	16242	15778	0	728
9.376	-48.684	16240	15817	0	728
9.160	-55.860	16239	15797	0	728
10.061	-57.807	16237	15797	0	728
10.206	-52.470	16237	15920	0	728
11.143	-46.123	16238	16217	0	728
8.150	-42.265	16240	16577	0	728
6.996	-43.094	16243	16932	0	728
4.147	-44.789	16245	17261	0	728
3.426	-45.366	16249	17654	0	728
2.957	-41.471	16253	18145	0	728
2.019	-33.790	16260	18661	0	728
-1.515	-27.119	16265	19125	0	728
-3.210	-23.440	16272	19500	0	728
-6.239	-22.070	16277	19835	0	728
-6.167	-22.286	16284	20190	0	728
-5.049	-20.952	16292	20558	0	728
-6.455	-17.923	16300	20893	0	728
-8.547	-12.910	16307	21080	0	728
-12.946	-7.212	16312	21016	0	728
-19.401	-4.364	16315	20635	0	728
9.556	-67.292	16438	15307	0	888
10.602	-68.049	16435	15146	0	888
10.891	-67.688	16433	15055	0	888
12.622	-64.767	16430	15017	0	888
13.487	-62.604	16428	14972	0	888
14.713	-60.656	16424	14881	0	888
15.038	-59.574	16421	14804	0	888
18.067	-58.096	16418	14810	0	888
21.277	-56.509	16417	14888	0	888
24.955	-51.713	16414	14997	0	888
25.784	-48.828	16413	15101	0	888
26.758	-47.638	16411	15210	0	888
26.181	-48.612	16409	15352	0	888
25.820	-48.972	16409	15539	0	888
28.597	-47.962	16408	15733	0	888
31.338	-45.835	16407	15901	0	888
30.977	-43.960	16406	16049	0	888
30.184	-43.383	16406	16184	0	888
28.453	-45.150	16405	16281	0	888
26.397	-48.071	16404	16320	0	888
26.145	-49.766	16403	16333	0	888
23.765	-53.588	16401	16365	0	888
21.601	-57.230	16400	16403	0	888
17.815	-59.971	16399	16403	0	888
15.326	-63.397	16396	16339	0	888
13.523	-64.479	16395	16223	0	888
11.396	-66.426	16391	16023	0	888
8.799	-68.085	16386	15675	0	888
7.321	-69.167	16381	15197	0	888
5.590	-69.600	16375	14720	0	888
4.652	-68.374	16369	14391	0	888
5.445	-67.039	16365	14281	0	888
5.554	-65.417	16361	14339	0	888
6.419	-64.912	16358	14455	0	888
9.737	-64.082	16355	14546	0	888
12.550	-61.522	16351	14668	0	888
15.182	-59.719	16350	14849	0	888
16.733	-57.086	16348	15062	0	888
17.851	-54.345	16346	15275	0	888
17.238	-53.732	16345	15481	0	888
16.949	-53.660	16344	15726	0	888
16.913	-54.057	16344	16017	0	888
17.057	-55.103	16344	16320	0	888
17.995	-55.319	16344	16609	0	888
19.365	-55.139	16344	16880	0	888
19.762	-54.995	16345	17119	0	888
19.365	-55.572	16345	17313	0	888
17.634	-57.555	16345	17461	0	888
15.939	-60.079	16344	17474	0	888
14.677	-61.702	16342	17306	0	888
14.353	-62.459	16338	16938	0	888
12.297	-63.289	16334	16474	0	888
11.612	-66.030	16330	16126	0	888
9.629	-68.806	16327	15952	0	888
7.104	-72.340	16323	15862	0	888
6.527	-73.026	16321	15843	0	888
4.868	-71.583	16319	15868	0	888
3.787	-69.131	16318	15888	0	888
3.498	-65.200	16315	15868	0	888
4.652	-63.505	16313	15836	0	888
6.275	-62.315	16311	15875	0	888
8.439	-59.971	16310	15952	0	888
11.287	-59.899	16307	15965	0	888
12.225	-59.574	16305	15920	0	888
13.631	-59.538	16303	15939	0	888
13.054	-62.171	16302	15965	0	888
12.622	-63.181	16300	15920	0	888
9.088	-63.902	16296	15817	0	888
7.429	-62.315	16293	15701	0	888
5.445	-61.774	16291	15643	0	888
4.580	-63.686	16288	15662	0	888
3.065	-66.895	16286	15714	0	888
1.298	-70.537	16284	15784	0	888
-1.046	-72.881	16283	15888	0	888
-2.344	-71.367	16282	16023	0	888
-1.298	-68.265	16282	16197	0	888
1.515	-64.912	16282	16409	0	888
4.724	-64.082	16283	16642	0	888
5.337	-63.830	16283	16848	0	888
4.652	-66.823	16284	17067	0	888
3.246	-68.554	16285	17274	0	888
1.154	-69.492	16284	17325	0	888
1.118	-68.842	16283	17171	0	888
2.596	-68.085	16281	17016	0	888
4.544	-67.544	16280	16945	0	888
5.950	-66.607	16277	16713	0	888
9.052	-63.181	16273	16288	0	888
9.556	-57.086	16270	15972	0	888
10.819	-53.119	16269	15965	0	888
11.468	-49.297	16269	16165	0	888
10.097	-49.477	16269	16390	0	888
8.727	-51.713	16269	16564	0	888
6.275	-53.155	16269	16648	0	888
4.219	-54.057	16269	16687	0	888
2.452	-55.463	16267	16609	0	888
1.947	-56.257	16265	16365	0	888
1.226	-58.240	16261	16049	0	888
-0.829	-58.240	16258	15849	0	888
-3.714	-58.817	16258	15810	0	888
-5.662	-58.817	16256	15907	0	888
-8.655	-59.322	16257	16107	0	888
-7.862	-60.332	16257	16320	0	888
-7.753	-62.387	16258	16493	0	888
-6.780	-64.118	16258	16667	0	888
-5.337	-65.164	16258	16771	0	888
-6.058	-65.489	16258	16777	0	888
-5.085	-63.866	16258	16738	0	888
-4.111	-63.577	16258	16738	0	888
-5.265	-64.118	16258	16842	0	888
-4.436	-66.210	16260	17074	0	888
-5.085	-68.338	16263	17390	0	888
-4.760	-69.419	16267	17738	0	888
-5.770	-69.455	16269	18029	0	888
-5.445	-68.626	16272	18177	0	888
-4.291	-66.174	16275	18248	0	888
-3.173	-65.344	16279	18396	0	888
-0.072	-63.109	16283	18648	0	888
3.642	-60.188	16288	18932	0	888
7.825	-58.384	16293	19216	0	888
9.124	-57.014	16299	19493	0	888
11.684	-55.752	16305	19725	0	888
10.855	-57.122	16309	19803	0	888
10.025	-59.935	16312	19551	0	888
7.645	-63.397	16311	18977	0	888
8.186	-64.912	16312	18409	0	888
8.330	-66.030	16312	18042	0	888
10.855	-63.541	16314	17803	1	832
12.730	-60.801	16316	17719	0	832
14.930	-59.070	16321	17829	0	832
14.677	-58.420	16326	18048	0	832
13.163	-61.522	16330	18209	0	832
11.900	-64.876	16335	18280	0	832
9.953	-67.220	16340	18396	0	832
10.278	-66.967	16347	18622	0	832
10.169	-66.390	16354	18932	0	832
11.432	-63.505	16362	19242	0	832
12.477	-62.856	16369	19454	0	832
11.612	-63.433	16376	19609	0	832
11.432	-62.423	16384	19809	0	832
10.566	-62.568	16393	20029	0	832
8.222	-61.305	16400	20177	0	832
9.268	-61.161	16408	20196	0	832
9.881	-59.574	16414	20093	0	832
12.045	-58.745	16421	19925	0	832
15.543	-56.473	16428	19796	0	832
15.579	-55.536	16435	19700	0	832
15.687	-54.598	16440	19551	0	832
14.245	-54.778	16447	19371	0	832
11.612	-55.463	16453	19203	0	832
11.107	-56.798	16459	19067	0	832
8.583	-60.151	16466	18951	0	832
7.032	-62.568	16473	18861	0	832
4.400	-65.236	16478	18706	0	832
1.983	-66.138	16484	18442	0	832
1.839	-66.210	16489	18164	0	832
2.957	-65.957	16493	17932	0	832
4.039	-67.364	16499	17725	0	832
3.823	-68.554	16503	17558	0	832
2.705	-69.059	16508	17403	0	832
0.865	-70.213	16512	17177	0	832
-0.469	-70.790	16515	16880	0	832
1.731	-69.528	16519	16616	0	832
4.616	-66.318	16522	16409	0	832
7.537	-63.361	16525	16165	0	832
8.078	-59.106	16525	15797	0	832
9.052	-57.591	16525	15339	0	832
9.088	-57.158	16525	14926	0	832
11.215	-55.860	16525	14591	0	832
12.658	-54.237	16525	14314	0	832
15.182	-52.687	16524	14088	0	832
15.723	-52.218	16525	13894	0	832
15.362	-53.264	16524	13791	0	832
15.002	-55.103	16524	13791	0	832
14.281	-57.339	16525	13810	0	832
12.153	-57.519	16524	13746	0	832
11.648	-58.457	16522	13584	0	832
12.550	-57.375	16521	13397	0	832
12.333	-57.663	16518	13255	0	832
13.307	-56.437	16517	13230	0	832
12.081	-55.283	16517	13346	0	832
9.412	-53.300	16516	13552	0	832
7.753	-52.578	16517	13804	0	832
5.193	-54.309	16517	14081	0	832
3.967	-57.627	16518	14372	0	832
2.308	-62.856	16518	14643	0	832
2.596	-63.649	16519	14849	0	832
3.210	-63.541	16521	15036	0	832
2.560	-61.017	16521	15223	0	832
0.361	-58.997	16522	15410	0	832
-3.570	-57.339	16522	15572	0	832
-6.527	-54.886	16522	15694	0	832
-7.898	-54.165	16523	15804	0	832
-8.258	-53.768	16522	15881	0	832
-8.186	-55.139	16521	15823	0	832
-11.251	-57.411	16519	15675	0	832
-12.802	-58.060	16519	15649	0	832
-13.740	-56.076	16519	15784	0	832
-12.261	-54.129	16519	15894	0	832
-9.160	-52.975	16517	15862	0	832
-7.645	-54.237	16516	15739	0	832
-6.816	-56.004	16514	15675	0	832
-9.268	-58.132	16514	15720	0	832
-11.323	-59.863	16514	15830	0	832
-15.939	-62.712	16513	15914	0	832
-20.411	-64.876	16512	15914	0	832
-23.512	-68.806	16511	15901	1	316
-24.486	-71.295	16511	15952	0	316
-23.404	-71.511	16511	16055	0	316
-20.267	-70.790	16510	16126	0	316
-17.021	-68.229	16510	16114	0	316
-14.749	-67.220	16509	16088	0	316
-13.631	-65.489	16508	16075	0	316
-12.730	-67.147	16507	16094	0	316
-12.045	-67.869	16507	16107	0	316
-12.153	-68.734	16505	16068	0	316
-11.684	-69.239	16504	15991	0	316
-11.612	-70.069	16502	15926	0	316
-10.458	-70.141	16500	15849	0	316
-8.619	-71.078	16498	15714	0	316
-6.491	-70.105	16495	15572	0	316
-3.390	-68.049	16493	15481	0	316
0.072	-64.335	16491	15462	0	316
3.246	-62.315	16489	15449	0	316
6.708	-61.846	16487	15430	0	316
7.970	-62.171	16486	15462	0	316
7.645	-64.046	16482	15417	0	316
5.842	-63.433	16477	15120	0	316
3.570	-63.145	16471	14636	0	316
1.803	-61.522	16464	14133	0	316
1.911	-61.702	16457	13707	0	316
4.111	-60.873	16452	13494	0	316
4.940	-60.837	16447	13494	0	316
6.888	-59.430	16442	13533	0	316
7.862	-59.899	16437	13546	0	316
7.465	-59.358	16434	13649	0	316
5.770	-59.574	16431	13920	0	316
6.094	-61.450	16430	14301	0	316
3.823	-63.181	16427	14668	0	316
1.190	-66.210	16425	14939	0	316
-1.082	-68.518	16424	15184	0	316
-3.210	-69.455	16423	15488	0	316
-3.246	-67.400	16422	15823	0	316
-1.803	-64.767	16422	16133	0	316
2.164	-62.748	16421	16403	0	316
4.616	-59.611	16421	16680	0	316
5.806	-58.132	16421	16984	0	316
5.662	-57.375	16423	17293	0	316
2.416	-55.896	16424	17571	0	316
-1.875	-57.375	16423	17693	0	316
-5.950	-58.889	16422	17603	0	316
-11.828	-60.801	16419	17396	0	316
-14.858	-63.686	16418	17222	0	316
-18.139	-65.272	16416	17113	0	316
-19.510	-65.741	16414	17035	0	316
-18.716	-66.174	16413	16984	0	316
-15.867	-63.433	16411	16938	0	316
-12.045	-62.135	16410	16874	0	316
-10.061	-60.584	16408	16777	0	316
-8.186	-60.909	16407	16693	0	316
-9.520	-61.486	16405	16635	0	316
-10.422	-62.784	16403	16551	0	316
-8.583	-62.892	16400	16333	0	316
-7.068	-63.469	16396	16004	0	316
-4.364	-63.361	16393	15733	0	316
-3.354	-62.964	16389	15597	0	316
-1.803	-62.135	16387	15552	0	316
-1.154	-60.945	16384	15507	0	316
1.154	-59.538	16382	15423	0	316
3.210	-56.906	16379	15359	0	316
3.606	-55.499	16376	15307	0	316
3.246	-52.939	16372	15133	0	316
1.911	-51.388	16366	14855	0	316
1.190	-51.208	16362	14675	0	316
-0.361	-51.280	16360	14688	0	316
-1.262	-52.434	16357	14823	0	316
-3.101	-54.309	16355	15036	0	316
-5.445	-56.870	16354	15262	0	316
-6.599	-59.466	16352	15455	0	316
-8.439	-61.666	16351	15655	0	316
-7.645	-61.414	16350	15843	0	316
-7.393	-60.873	16348	15972	0	316
-5.517	-60.512	16347	16043	0	316
-3.678	-60.332	16345	16101	0	316
-1.587	-59.647	16344	16204	0	316
0.541	-57.447	16344	16352	0	316
2.993	-55.499	16343	16513	0	316
6.419	-54.454	16342	16661	0	316
7.645	-54.201	16342	16764	0	316
9.737	-55.499	16340	16842	0	316
10.350	-54.345	16340	16887	0	316
11.792	-51.064	16339	16867	0	316
12.802	-46.953	16338	16848	0	316
15.723	-44.753	16339	16984	0	316
16.985	-43.130	16340	17235	0	316
17.923	-44.609	16340	17416	0	316
18.067	-44.825	16340	17454	0	316
18.356	-45.294	16339	17358	0	316
19.185	-43.238	16336	17087	0	316
21.385	-42.409	16333	16661	0	316
22.791	-41.832	16329	16249	0	316
26.686	-41.327	16324	15907	0	316
26.650	-41.832	16320	15610	0	316
27.407	-41.724	16316	15397	0	316
25.099	-40.858	16314	15307	0	316
23.116	-41.868	16312	15307	0	316
19.726	-42.914	16309	15326	0	316
18.644	-45.655	16307	15339	0	316
17.562	-46.917	16306	15404	0	316
15.435	-48.467	16305	15559	0	316
12.838	-50.523	16304	15778	0	316
10.891	-51.316	16304	15997	0	316
9.629	-53.336	16303	16159	0	316
11.396	-53.372	16304	16301	0	316
14.208	-52.506	16304	16474	0	316
16.012	-49.549	16304	16693	0	316
15.615	-49.116	16305	16900	0	316
13.956	-49.116	16306	17042	0	316
11.684	-49.874	16303	16964	0	316
12.730	-51.929	16298	16525	0	316
13.740	-51.929	16293	15894	0	316
16.516	-52.434	16288	15430	0	316
18.356	-51.929	16284	15243	0	316
20.808	-49.153	16282	15223	0	316
21.890	-46.700	16280	15301	0	316
25.099	-43.238	16277	15339	0	316
25.856	-41.832	16274	15236	0	316
24.666	-43.671	16270	15036	0	316
23.224	-47.061	16265	14830	0	316
20.555	-52.218	16260	14662	0	316
17.598	-56.221	16257	14559	0	316
17.021	-58.529	16253	14546	0	316
16.120	-56.834	16251	14675	0	316
16.949	-54.382	16250	14952	0	316
19.041	-51.064	16249	15301	0	316
21.385	-48.684	16249	15630	0	316
21.962	-50.451	16247	15881	0	316
21.421	-53.119	16248	16146	0	316
17.634	-55.355	16249	16474	0	316
14.100	-56.473	16251	16874	0	316
12.730	-56.942	16252	17254	0	316
11.143	-57.086	16255	17590	0	316
12.622	-56.726	16257	17887	0	316
13.307	-57.591	16260	18164	0	316
11.323	-57.916	16262	18416	0	316
9.448	-60.188	16265	18596	0	316
7.862	-60.873	16266	18661	0	316
6.131	-61.810	16267	18571	0	316
5.734	-60.981	16265	18313	0	316
7.970	-59.863	16265	18035	0	316
8.186	-58.817	16267	17925	0	316
10.061	-60.007	16267	17964	0	316
10.458	-64.154	16270	18080	0	316
10.169	-64.840	16274	18261	0	316
8.439	-65.020	16277	18480	0	316
8.619	-63.181	16281	18713	0	316
8.727	-60.512	16287	19003	0	316
9.592	-60.692	16293	19332	0	316
8.150	-62.928	16298	19609	0	316
5.734	-66.751	16304	19738	0	316
1.803	-71.114	16309	19771	0	316
-2.488	-74.360	16314	19842	0	316
-5.157	-77.642	16321	19996	0	316
-6.058	-79.805	16327	20138	0	316
-7.176	-81.500	16333	20125	0	316
-6.599	-80.995	16337	19964	0	316
-7.248	-81.320	16343	19842	0	316
-8.078	-83.015	16350	19887	0	316
-9.556	-84.674	16357	20022	1	648
-12.477	-88.424	16364	20113	0	648
-14.821	-90.299	16371	20093	0	648
-16.697	-91.165	16378	20061	0	648
-18.536	-91.778	16384	20054	0	648
-18.752	-90.191	16391	20022	0	648
-18.464	-89.794	16396	19880	0	648
-17.310	-88.460	16402	19590	0	648
-16.516	-88.208	16405	19184	0	648
-15.867	-87.595	16410	18777	0	648
-14.461	-86.873	16414	18480	0	648
-15.362	-85.900	16419	18313	0	648
-17.779	-85.864	16424	18158	0	648
-20.447	-85.467	16428	17958	0	648
-23.260	-88.388	16430	17590	0	648
-25.460	-90.660	16431	17003	0	648
-24.486	-92.571	16431	16390	0	648
-22.467	-91.057	16432	15997	0	648
-20.231	-89.362	16435	15836	0	648
-19.149	-87.919	16438	15810	0	648
-19.149	-88.893	16441	15849	0	648
-21.781	-93.689	16446	15926	0	648
-24.270	-99.423	16450	16049	0	648
-26.902	-103.065	16454	16210	0	648
-25.243	-101.226	16459	16339	0	648
-20.591	-95.853	16463	16346	0	648
-13.523	-86.873	16466	16223	0	648
-5.914	-80.707	16465	15907	0	648
-1.406	-76.488	16461	15249	0	648
0.288	-76.776	16456	14307	0	648
-0.397	-77.317	16449	13365	0	648
-2.633	-78.219	16442	12591	0	648
-5.085	-79.805	16435	12036	0	648
-6.888	-80.022	16431	11701	0	648
-8.655	-80.923	16426	11578	0	648
-8.943	-81.825	16423	11630	0	648
-8.222	-80.743	16421	11804	0	648
-6.527	-80.995	16420	12139	0	648
-5.554	-80.274	16422	12668	0	648
-5.229	-82.077	16424	13352	0	648
-5.878	-82.582	16426	14094	0	648
-7.537	-83.267	16431	14810	0	648
-9.052	-83.916	16435	15520	0	648
-9.917	-84.926	16440	16223	0	648
-10.350	-83.448	16446	16925	0	648
-10.710	-82.834	16452	17635	0	648
-8.907	-80.959	16460	18293	0	648
-6.347	-76.992	16466	18887	0	648
-3.246	-74.360	16474	19435	0	648
1.875	-70.754	16482	19906	0	648
7.104	-66.715	16489	20274	0	648
11.792	-61.955	16496	20532	0	648
17.418	-56.004	16503	20693	0	648
21.565	-50.956	16510	20758	0	648
23.621	-46.700	16515	20700	0	648
25.171	-45.727	16520	20500	0	648
25.135	-45.727	16525	20242	0	648
26.974	-45.438	16529	20029	0	648
30.364	-41.688	16533	19809	0	648
38.298	-34.223	16536	19442	0	648
48.035	-22.719	16537	18951	0	648
60.584	-10.710	16541	18577	0	648
73.494	2.416	16544	18358	0	648
85.359	14.569	16546	18106	0	648
95.925	26.433	16547	17706	0	648
106.275	37.577	16548	17222	0	648
114.605	44.140	16549	16777	0	648
120.195	49.730	16549	16435	0	648
123.332	51.497	16550	16184	0	648
124.847	52.939	16551	15939	0	648
126.506	54.165	16550	15668	0	648
127.804	55.139	16551	15410	0	648
130.112	55.283	16551	15217	0	648
127.876	53.624	16551	15075	0	648
123.008	50.198	16551	14926	0	648
115.759	44.573	16550	14739	0	648
109.268	39.091	16549	14565	0	648
103.390	32.203	16549	14468	0	648
97.692	26.217	16549	14468	0	648
92.138	20.808	16548	14494	1	316
84.385	13.199	16546	14384	0	316
75.947	6.239	16542	13972	0	316
68.157	-2.633	16535	13333	0	316
62.243	-9.520	16527	12655	0	316
56.834	-16.192	16519	12075	0	316
52.110	-20.772	16512	11668	0	316
47.169	-25.352	16506	11494	0	316
41.724	-30.436	16501	11507	0	316
34.331	-38.406	16495	11610	0	316
26.397	-45.655	16492	11791	0	316
18.392	-52.867	16488	12055	0	316
11.648	-57.735	16484	12294	0	316
8.727	-59.611	16479	12430	0	316
6.419	-62.135	16473	12494	0	316
7.104	-63.145	16469	12565	0	316
4.977	-66.246	16464	12746	0	316
2.993	-68.518	16460	13036	0	316
1.442	-70.357	16457	13359	0	316
-1.659	-73.134	16454	13636	0	316
-4.327	-77.137	16450	13888	0	316
-10.855	-81.500	16447	14217	0	316
-14.930	-84.205	16446	14636	0	316
-19.870	-86.260	16445	15094	0	316
-21.962	-86.765	16444	15526	0	316
-24.775	-88.100	16442	15823	0	316
-26.686	-91.165	16440	15978	0	316
-29.679	-97.115	16437	16043	0	316
-30.905	-99.892	16434	16081	0	316
-31.699	-101.695	16431	16146	0	316
-32.276	-102.813	16429	16236	0	316
-33.177	-101.010	16427	16365	0	316
-35.233	-100.649	16426	16564	0	316
-34.620	-99.459	16425	16816	0	316
-33.285	-98.810	16425	17048	0	316
-30.833	-96.718	16423	17125	0	316
-29.715	-96.646	16418	16900	0	316
-29.318	-96.069	16412	16396	0	316
-30.581	-95.636	16407	15933	0	316
-28.597	-94.194	16402	15726	0	316
-26.830	-92.066	16398	15714	0	316
-23.260	-90.047	16396	15778	0	316
-21.854	-89.001	16394	15907	0	316
-20.447	-88.965	16393	16088	0	316
-19.582	-88.749	16391	16288	0	316
-18.644	-87.847	16390	16474	0	316
-18.175	-87.018	16390	16674	0	316
-18.716	-85.683	16389	16829	0	316
-20.087	-85.251	16387	16867	0	316
-19.798	-86.621	16386	16842	0	316
-18.392	-85.936	16386	16913	0	316
-15.651	-84.097	16384	17009	0	316
-11.720	-81.789	16382	16893	0	316
-9.737	-77.101	16379	16590	0	316
-8.006	-74.684	16375	16314	0	316
-6.852	-71.583	16373	16197	0	316
-5.698	-69.924	16371	16230	0	316
-6.563	-69.131	16369	16346	0	316
-5.337	-70.141	16369	16480	0	316
-5.193	-71.619	16369	16590	0	316
-6.094	-72.990	16367	16654	0	316
-4.760	-72.124	16367	16713	0	316
-1.695	-68.734	16367	16784	0	316
2.669	-63.433	16366	16867	0	316
6.888	-58.457	16366	16951	0	316
9.881	-55.283	16366	17067	0	316
10.963	-54.670	16367	17216	0	316
7.898	-57.230	16368	17396	0	316
4.688	-61.594	16369	17571	0	316
1.442	-65.308	16370	17680	0	316
-0.288	-64.335	16371	17713	0	316
0.361	-62.856	16372	17713	0	316
2.993	-60.043	16372	17706	0	316
4.580	-59.899	16372	17687	0	316
7.248	-60.801	16374	17667	0	316
6.635	-62.964	16374	17661	0	316
5.229	-63.433	16375	17648	0	316
3.282	-63.866	16375	17596	0	316
-0.577	-65.849	16375	17493	0	316
-4.147	-67.905	16375	17364	0	316
-4.508	-70.573	16375	17222	0	316
-4.111	-70.718	16374	17029	0	316
-1.370	-70.357	16372	16751	0	316
0.397	-69.672	16370	16442	0	316
1.010	-70.357	16369	16223	0	316
-0.252	-71.331	16368	16120	0	316
-2.596	-72.881	16366	16030	0	316
-5.121	-73.134	16365	15843	0	316
-5.986	-72.593	16361	15559	0	316
-7.753	-73.891	16358	15314	0	316
-7.609	-74.180	16356	15197	0	316
-8.258	-76.668	16355	15191	0	316
-8.366	-77.028	16353	15204	0	316
-9.953	-77.353	16351	15172	0	316
-10.314	-75.658	16350	15133	0	316
-12.586	-73.891	16348	15152	0	316
-12.333	-71.150	16346	15184	0	316
-10.927	-67.111	16344	15178	0	316
-5.806	-60.296	16342	15146	0	316
2.488	-52.831	16340	15146	0	316
10.206	-43.851	16338	15178	0	316
16.733	-38.658	16336	15243	0	316
20.808	-37.000	16335	15320	0	316
20.231	-39.416	16332	15314	0	316
16.516	-43.527	16327	15075	0	316
11.540	-47.854	16322	14675	0	316
6.744	-50.487	16317	14397	0	316
3.210	-50.379	16313	14333	0	316
3.570	-49.044	16310	14346	0	316
5.481	-48.215	16305	14352	0	316
8.186	-48.071	16300	14210	0	316
7.934	-50.956	16291	13778	0	316
7.176	-55.860	16283	13255	0	316
4.400	-59.358	16276	12991	0	316
2.849	-59.574	16272	13075	0	316
2.741	-57.735	16266	13262	0	316
3.859	-55.499	16261	13391	0	316
2.524	-55.608	16257	13501	0	316
-1.046	-58.601	16253	13733	0	316
-4.977	-61.522	16251	14114	0	316
-7.537	-64.407	16250	14597	0	316
-8.402	-65.813	16248	15075	0	316
-8.078	-66.679	16248	15501	0	316
-11.612	-71.042	16247	15920	0	316
-18.536	-76.199	16248	16396	0	316
-25.388	-81.464	16250	16958	0	316
-30.653	-83.448	16251	17513	0	316
-32.853	-83.916	16254	17958	0	316
-34.908	-82.943	16256	18319	0	316
-38.586	-82.402	16258	18667	0	316
-43.022	-85.503	16262	19016	0	316
-47.494	-88.857	16265	19325	0	316
-48.900	-92.643	16267	19538	0	316
-50.162	-94.194	16269	19558	0	316
-50.559	-96.033	16268	19325	0	316
-51.641	-94.519	16267	18913	0	316
-52.398	-91.345	16266	18532	0	316
-51.172	-87.523	16266	18371	0	316
-48.287	-81.861	16267	18338	0	316
-42.806	-78.110	16268	18313	0	316
-39.921	-75.658	16270	18358	0	316
-36.747	-74.288	16274	18532	0	316
-36.206	-73.567	16277	18771	0	316
-36.567	-72.629	16283	19061	0	316
-37.468	-71.186	16288	19396	0	316
-36.711	-70.321	16294	19693	0	316
-34.115	-68.842	16301	19951	0	316
-30.869	-66.571	16309	20248	0	316
-25.856	-62.820	16316	20603	0	316
-19.221	-57.086	16324	20906	0	316
-13.415	-51.821	16331	21022	0	316
-8.763	-46.917	16338	21022	0	316
-4.400	-45.150	16346	21067	0	316
-3.642	-44.609	16354	21138	0	316
-3.678	-45.799	16361	21151	0	316
-4.724	-48.179	16368	21080	0	316
-5.301	-48.323	16375	20971	0	316
-6.022	-49.225	16383	20887	0	316
-4.147	-47.169	16390	20893	0	316
-0.288	-44.609	16400	20971	1	636
6.527	-39.704	16410	21093	0	636
15.074	-32.744	16419	21171	0	636
24.630	-24.486	16428	21106	0	636
32.961	-14.605	16436	20906	0	636
41.399	-6.131	16444	20674	0	636
50.234	2.705	16451	20416	0	636
61.450	11.432	16459	20125	0	636
74.360	23.765	16465	19809	0	636
87.054	36.675	16472	19480	0	636
100.180	48.720	16477	19138	0	636
110.530	58.565	16484	18829	0	636
117.598	65.453	16489	18513	0	636
122.683	66.354	16494	18190	0	636
124.162	67.039	16500	17880	0	636
124.558	66.498	16504	17571	0	636
123.549	65.885	16508	17235	0	636
121.781	65.669	16512	16893	0	636
118.572	63.253	16516	16584	0	636
113.091	56.834	16519	16301	0	636
104.147	46.881	16522	16017	0	636
94.807	33.646	16525	15759	0	636
83.303	21.854	16529	15617	0	636
74.612	11.504	16531	15468	0	636
66.895	4.472	16532	15165	0	636
59.719	-1.118	16533	14765	0	636
53.841	-6.563	16533	14372	0	636
47.133	-13.704	16532	14049	0	636
38.983	-23.981	16532	13843	0	636
30.977	-36.603	16533	13720	0	636
23.440	-48.179	16532	13597	0	636
15.254	-57.086	16531	13397	0	636
8.258	-63.325	16530	13165	0	636
1.767	-68.374	16528	12984	0	636
-3.678	-71.836	16526	12888	0	636
-9.484	-76.127	16524	12855	0	636
-12.081	-80.094	16522	12810	0	636
-15.362	-83.952	16520	12772	0	636
-17.526	-87.090	16519	12817	0	636
-18.139	-90.263	16517	12946	0	636
-17.202	-92.030	16517	13126	0	636
-14.930	-92.319	16515	13294	0	636
-13.091	-90.191	16514	13449	0	636
-12.550	-87.559	16513	13636	0	636
-16.661	-86.513	16514	13875	0	636
-21.385	-87.234	16513	14152	0	636
-25.496	-90.335	16511	14326	0	636
-29.174	-94.771	16508	14230	0	636
-32.167	-99.964	16503	13952	0	636
-32.925	-102.272	16499	13784	0	636
-34.367	-103.642	16496	13797	0	636
-34.908	-103.137	16494	13881	0	636
-34.836	-102.596	16491	14023	0	636
-34.367	-103.787	16489	14191	0	636
-34.475	-106.058	16486	14294	0	636
-33.898	-108.222	16484	14346	0	636
-34.259	-110.206	16482	14572	0	636
-34.079	-110.638	16482	14991	0	636
-34.800	-109.196	16482	15384	0	636
-34.547	-108.006	16481	15591	0	636
-34.079	-107.068	16480	15668	0	636
-32.708	-105.373	16479	15784	0	636
-32.997	-104.508	16478	16004	0	636
-31.554	-104.291	16478	16268	0	636
-30.905	-102.488	16478	16442	0	636
-29.499	-101.659	16477	16480	0	636
-28.381	-100.397	16475	16493	0	636
-26.433	-100.974	16475	16564	0	636
-27.263	-100.865	16474	16667	0	636
-27.083	-101.479	16474	16764	0	636
-28.886	-101.082	16473	16816	0	636
-29.066	-100.144	16473	16867	0	636
-28.417	-97.512	16473	16964	0	636
-26.902	-95.781	16473	17087	0	636
-25.243	-94.591	16474	17138	0	636
-27.191	-95.204	16471	16971	0	636
-30.725	-98.413	16467	16590	0	636
-33.826	-99.531	16464	16217	0	636
-33.970	-98.918	16461	15978	0	636
-30.977	-95.817	16458	15868	0	636
-26.938	-91.742	16457	15843	0	636
-23.945	-90.840	16455	15862	0	636
-23.693	-91.598	16453	15901	0	636
-26.758	-95.204	16452	15952	0	636
-27.479	-96.213	16450	15965	0	636
-29.354	-95.312	16449	15959	0	636
-30.328	-92.715	16448	15984	0	636
-28.958	-87.919	16446	15984	0	636
-27.876	-83.808	16443	15849	0	636
-24.017	-82.221	16439	15610	0	636
-21.349	-81.103	16436	15423	0	636
-17.057	-81.644	16434	15359	0	636
-14.028	-82.005	16431	15320	0	636
-12.694	-80.238	16427	15230	0	636
-10.350	-78.074	16424	15133	0	636
-10.206	-75.838	16422	15120	0	636
-9.881	-74.288	16419	15197	0	636
-11.937	-75.838	16417	15339	0	636
-13.631	-76.415	16416	15475	0	636
-12.658	-74.973	16414	15572	0	636
-11.179	-71.295	16413	15688	0	636
-7.032	-64.984	16412	15823	0	636
-3.065	-61.089	16409	15823	0	636
-1.406	-59.394	16406	15655	0	636
-3.606	-63.469	16402	15468	0	636
-7.212	-69.059	16398	15391	0	636
-8.655	-73.134	16396	15430	0	636
-8.799	-74.829	16395	15591	0	636
-4.940	-71.583	16394	15830	0	636
-0.397	-67.508	16393	16030	0	636
3.390	-64.731	16393	16197	0	636
4.255	-62.063	16392	16365	0	636
4.075	-62.568	16393	16551	0	636
2.957	-62.063	16393	16771	0	636
3.498	-62.640	16393	16958	0	636
3.282	-62.928	16393	17106	0	636
4.400	-63.974	16393	17203	0	636
4.580	-65.308	16393	17261	0	636
6.708	-64.623	16393	17306	0	636
7.970	-64.190	16393	17345	0	636
9.917	-63.686	16393	17325	0	636
11.612	-61.522	16389	17022	0	636
10.746	-61.882	16382	16288	0	636
8.150	-60.909	16375	15378	0	636
7.285	-60.151	16368	14746	0	636
8.475	-56.978	16361	14365	0	636
13.307	-53.732	16354	14004	0	636
17.851	-50.487	16347	13662	0	636
23.008	-49.621	16341	13404	0	636
23.404	-50.811	16336	13320	0	636
21.781	-52.975	16332	13443	0	636
19.473	-53.228	16330	13714	0	636
19.113	-52.254	16326	14023	0	636
18.680	-51.064	16324	14314	0	636
19.437	-51.172	16323	14617	0	636
20.267	-51.497	16321	14972	0	636
22.647	-49.044	16322	15397	0	636
26.830	-45.114	16321	15830	0	636
31.482	-40.462	16321	16217	0	636
33.610	-37.577	16322	16538	0	636
32.600	-39.163	16322	16861	0	636
27.732	-42.661	16323	17222	0	636
22.935	-47.061	16325	17551	0	636
19.798	-49.116	16326	17790	0	636
17.779	-50.415	16328	17977	0	636
15.651	-52.398	16329	18158	0	636
13.668	-52.939	16330	18319	0	636
13.091	-53.552	16331	18416	0	636
11.900	-54.201	16333	18474	0	636
12.874	-53.264	16334	18519	0	636
12.333	-52.795	16335	18525	0	636
11.143	-52.506	16336	18461	0	636
10.025	-51.821	16336	18306	0	636
11.756	-49.585	16333	17964	0	636
12.982	-47.205	16329	17345	0	636
15.218	-46.304	16322	16551	0	636
15.471	-46.340	16316	15810	0	636
13.018	-48.828	16310	15281	0	636
10.386	-50.884	16307	14984	0	636
6.635	-52.687	16303	14855	0	636
5.013	-52.723	16300	14784	0	636
4.652	-55.752	16296	14688	0	636
5.770	-57.122	16294	14630	0	636
7.934	-56.617	16292	14739	0	636
11.071	-54.418	16291	15010	0	636
13.523	-51.316	16292	15346	0	636
13.343	-50.090	16292	15655	0	636
13.668	-52.614	16292	15888	0	636
11.828	-56.473	16293	16094	0	636
12.477	-57.843	16293	16333	0	636
13.704	-55.283	16294	16577	0	636
16.192	-53.372	16295	16822	0	636
17.382	-52.506	16296	17029	0	636
17.166	-53.696	16297	17184	0	636
16.372	-57.735	16298	17300	0	636
16.408	-59.502	16298	17396	0	636
17.382	-58.240	16300	17474	0	636
18.824	-58.493	16300	17525	0	636
18.752	-58.745	16302	17596	0	636
16.372	-61.846	16303	17680	0	636
13.018	-65.633	16305	17758	0	636
8.727	-70.934	16305	17803	0	636
7.104	-74.612	16308	17822	0	636
6.599	-78.219	16308	17784	0	636
8.186	-81.572	16307	17596	0	636
8.583	-84.025	16306	17248	0	636
9.989	-84.169	16304	16958	0	636
9.232	-84.890	16305	16835	0	636
9.665	-84.782	16305	16816	0	636
9.701	-87.631	16305	16829	0	636
10.350	-90.588	16307	16880	0	636
9.917	-94.483	16308	16971	0	636
8.979	-99.351	16311	17132	0	636
7.825	-103.462	16314	17403	0	636
5.986	-107.862	16318	17745	0	636
3.859	-112.838	16323	18048	0	636
3.210	-117.166	16327	18287	0	636
1.226	-119.618	16331	18493	0	636
1.659	-118.608	16335	18635	0	636
2.524	-117.021	16339	18661	0	636
4.652	-114.713	16342	18616	0	636
5.517	-112.261	16344	18558	0	636
7.068	-113.343	16349	18558	0	636
5.986	-114.605	16354	18674	0	636
3.967	-115.326	16359	18861	0	636
2.777	-116.444	16365	19048	0	636
0.685	-118.392	16371	19203	0	636
0.505	-118.969	16376	19306	0	636
2.416	-120.627	16381	19274	0	636
4.940	-120.772	16384	19145	1	836
8.006	-118.680	16389	19074	0	836
11.684	-114.713	16396	19151	0	836
13.487	-110.350	16402	19300	0	836
15.831	-106.203	16410	19461	0	836
17.959	-104.219	16417	19635	0	836
19.762	-105.554	16425	19790	0	836
19.798	-108.835	16432	19854	0	836
19.149	-112.369	16439	19816	0	836
17.166	-115.038	16445	19732	0	836
15.543	-115.110	16452	19603	0	836
16.372	-115.218	16457	19442	0	836
16.516	-114.605	16463	19261	0	836
16.985	-117.382	16468	19074	0	836
16.949	-118.283	16474	18848	0	836
17.057	-118.933	16478	18558	0	836
18.428	-116.048	16482	18222	0	836
20.339	-111.648	16485	17880	0	836
20.916	-110.566	16487	17396	0	836
19.726	-110.963	16487	16725	0	836
18.824	-112.225	16486	16075	0	836
17.562	-113.668	16486	15565	0	836
19.113	-111.396	16487	15223	0	836
22.431	-108.366	16488	15062	0	836
25.279	-105.013	16489	15030	0	836
28.381	-103.678	16491	14959	0	836
30.833	-102.092	16491	14746	0	836
33.538	-100.072	16491	14481	0	836
36.206	-97.331	16491	14294	0	836
38.731	-92.932	16491	14236	0	836
38.911	-90.408	16492	14281	0	836
35.810	-89.867	16493	14365	0	836
31.843	-93.942	16494	14488	0	836
28.020	-99.675	16496	14662	0	836
26.686	-105.734	16499	14901	0	836
24.919	-108.258	16502	15152	0	836
24.089	-108.042	16504	15378	0	836
20.483	-106.311	16506	15559	0	836
17.562	-102.957	16509	15720	0	836
16.012	-100.216	16510	15810	0	836
16.084	-93.833	16510	15733	0	836
15.759	-85.142	16508	15443	0	836
14.821	-74.973	16505	14997	0	836
11.143	-63.253	16501	14526	0	836
9.340	-54.093	16498	14165	0	836
8.871	-47.566	16494	13926	0	836
9.052	-42.625	16491	13797	0	836
10.891	-40.281	16489	13765	0	836
10.891	-39.272	16487	13765	0	836
9.629	-37.072	16482	13681	0	836
7.176	-33.970	16480	13565	0	836
7.032	-30.148	16477	13591	0	836
7.176	-25.352	16476	13765	0	836
10.169	-20.627	16474	13972	0	836
13.487	-17.202	16472	14178	0	836
15.867	-14.569	16472	14404	0	836
17.057	-14.894	16471	14681	0	836
16.444	-16.589	16473	15043	0	836
15.074	-18.897	16473	15462	0	836
14.966	-19.834	16475	15868	0	836
13.920	-20.195	16476	16217	0	836
14.028	-18.969	16478	16532	0	836
12.838	-19.654	16480	16880	0	836
12.766	-20.050	16482	17254	0	836
11.576	-21.060	16486	17577	0	836
11.648	-21.277	16487	17784	0	836
11.540	-22.034	16489	17925	0	836
10.494	-22.358	16492	18048	0	836
10.097	-24.739	16494	18145	0	836
9.340	-26.902	16494	18125	0	836
6.203	-32.059	16494	17893	0	836
1.947	-35.954	16491	17422	0	836
-2.633	-40.714	16486	16713	0	836
-4.760	-41.507	16478	15823	0	836
-3.750	-39.776	16471	14984	0	836
0.613	-35.882	16466	14462	0	836
4.977	-32.600	16461	14230	0	836
5.986	-32.672	16457	14133	0	836
6.419	-34.367	16453	14049	0	836
6.094	-37.829	16450	13984	1	316
7.176	-38.767	16447	14055	0	316
11.323	-36.891	16445	14281	0	316
13.956	-35.269	16444	14546	0	316
17.995	-31.590	16442	14714	0	316
18.175	-30.256	16441	14791	0	316
16.913	-30.364	16438	14920	0	316
14.389	-32.167	16438	15139	0	316
10.314	-34.980	16437	15404	0	316
6.671	-39.163	16437	15636	0	316
2.236	-42.625	16436	15810	0	316
-2.092	-45.618	16435	15972	0	316
-5.878	-49.044	16435	16178	0	316
-8.799	-53.300	16435	16403	0	316
-9.629	-56.293	16435	16629	0	316
-9.556	-59.286	16435	16796	0	316
-8.042	-59.719	16435	16842	0	316
-8.078	-59.611	16434	16803	0	316
-9.016	-59.214	16434	16829	0	316
-11.864	-58.781	16434	16958	0	316
-13.199	-60.548	16434	17067	0	316
-14.317	-61.774	16434	17145	0	316
-13.415	-64.443	16435	17248	0	316
-11.576	-64.118	16436	17409	0	316
-7.789	-61.955	16438	17558	0	316
-5.301	-56.906	16439	17648	0	316
0.397	-50.992	16440	17706	0	316
5.085	-46.051	16441	17771	0	316
8.006	-43.274	16442	17796	0	316
10.169	-41.832	16442	17732	0	316
11.107	-42.770	16443	17616	0	316
10.530	-42.734	16443	17500	0	316
10.422	-43.599	16442	17325	0	316
9.809	-43.707	16439	16996	0	316
8.439	-45.005	16436	16538	0	316
4.003	-48.684	16433	16146	0	316
0.180	-55.968	16431	15881	0	316
-4.616	-62.279	16428	15662	0	316
-8.943	-67.688	16424	15314	0	316
-10.999	-70.249	16417	14810	0	316
-13.307	-70.862	16412	14333	0	316
-14.317	-70.934	16407	14004	0	316
-14.749	-70.573	16402	13810	0	316
-11.215	-70.069	16396	13662	0	316
-8.511	-69.816	16392	13501	0	316
-4.508	-69.095	16386	13372	0	316
-3.823	-69.780	16383	13301	0	316
-4.111	-69.347	16379	13326	0	316
-6.094	-69.383	16375	13475	0	316
-8.871	-69.636	16372	13668	0	316
-9.881	-71.475	16369	13901	0	316
-10.927	-73.278	16367	14204	0	316
-7.429	-71.619	16367	14597	0	316
-0.469	-65.236	16366	15043	0	316
7.789	-55.752	16365	15443	0	316
15.362	-47.313	16366	15784	0	316
17.634	-43.310	16365	16107	0	316
15.939	-42.229	16366	16435	0	316
12.333	-44.681	16366	16764	0	316
8.042	-45.546	16367	17029	0	316
4.652	-46.700	16368	17242	0	316
1.334	-49.910	16368	17422	0	316
-3.101	-52.975	16368	17558	0	316
-7.176	-57.663	16369	17667	0	316
-10.999	-61.918	16368	17732	0	316
-12.153	-64.010	16367	17635	0	316
-12.477	-64.551	16364	17287	0	316
-12.622	-64.695	16359	16771	0	316
-10.855	-61.810	16354	16275	0	316
-10.783	-61.666	16350	15901	0	316
-11.071	-61.125	16346	15707	0	316
-11.035	-62.712	16344	15630	0	316
-12.766	-63.613	16341	15630	0	316
-14.317	-65.453	16339	15662	0	316
-13.163	-66.751	16337	15675	0	316
-10.242	-65.020	16334	15610	0	316
-6.671	-63.253	16331	15501	0	316
-0.793	-58.637	16328	15436	0	316
3.101	-52.939	16326	15430	0	316
4.400	-48.792	16324	15514	0	316
5.734	-47.782	16323	15675	0	316
3.390	-48.107	16322	15875	0	316
1.479	-51.713	16321	16049	0	316
1.551	-53.516	16321	16184	0	316
2.308	-53.624	16320	16307	0	316
2.741	-52.903	16320	16454	0	316
3.354	-53.696	16320	16635	0	316
0.180	-57.880	16321	16835	0	316
-4.183	-63.649	16321	17009	0	316
-9.304	-70.646	16322	17171	0	316
-12.189	-74.144	16323	17313	0	316
-14.100	-74.684	16323	17416	0	316
-15.579	-76.632	16323	17487	0	316
-17.021	-77.605	16323	17487	0	316
-18.897	-78.651	16322	17345	0	316
-20.411	-81.067	16321	17093	0	316
-20.231	-80.346	16319	16874	0	316
-19.149	-79.156	16317	16719	0	316
-16.264	-76.235	16316	16603	0	316
-14.569	-75.153	16314	16513	0	316
-13.704	-74.144	16313	16435	0	316
-12.369	-74.793	16311	16372	0	316
-11.973	-73.603	16310	16281	0	316
-9.052	-70.934	16309	16197	0	316
-3.606	-65.489	16308	16146	0	316
3.606	-59.394	16305	16101	0	316
9.701	-57.158	16304	15984	0	316
12.261	-55.932	16302	15797	0	316
11.504	-56.076	16298	15662	0	316
9.665	-57.014	16298	15643	0	316
7.609	-57.339	16296	15688	0	316
7.429	-59.574	16295	15720	0	316
7.429	-60.296	16293	15681	0	316
8.547	-59.863	16290	15610	0	316
9.448	-58.493	16288	15494	0	316
12.081	-55.788	16284	15333	0	316
13.920	-53.228	16281	15165	0	316
16.048	-52.687	16277	15017	0	316
15.795	-53.011	16274	14939	0	316
14.353	-52.362	16272	14991	0	316
14.028	-51.208	16270	15146	0	316
12.045	-50.739	16270	15339	0	316
13.199	-50.018	16268	15514	0	316
13.127	-49.766	16267	15636	0	316
14.785	-50.270	16265	15623	0	316
16.264	-49.116	16260	15404	0	316
17.057	-47.818	16257	15146	0	316
19.005	-45.618	16254	15126	0	316
22.827	-42.553	16253	15359	0	316
26.722	-39.776	16253	15694	0	316
31.410	-34.151	16254	16049	0	316
35.665	-29.246	16254	16396	0	316
36.423	-25.712	16257	16790	0	316
35.413	-27.010	16259	17254	0	316
33.429	-31.302	16263	17738	0	316
33.105	-34.367	16266	18106	0	316
33.898	-35.557	16269	18358	0	316
35.557	-33.574	16274	18661	0	316
36.567	-31.590	16279	19074	0	316
34.583	-32.276	16284	19513	0	316
30.040	-37.000	16289	19816	0	316
26.470	-41.507	16293	19913	0	316
23.621	-44.212	16297	19919	0	316
22.611	-45.078	16301	19900	0	316
21.745	-43.166	16305	19874	0	316
20.555	-42.553	16309	19867	0	316
18.211	-41.868	16314	19887	0	316
15.543	-44.681	16319	19906	1	588
13.307	-47.530	16324	19919	0	588
10.278	-50.992	16329	19945	0	588
5.517	-53.047	16335	19990	0	588
1.767	-53.119	16341	20029	0	588
-1.334	-51.713	16347	20067	0	588
-2.777	-50.162	16354	20080	0	588
-0.649	-49.657	16360	20080	0	588
1.839	-48.251	16367	20125	0	588
4.327	-47.169	16375	20196	0	588
6.563	-44.825	16382	20229	0	588
7.285	-41.147	16388	20242	0	588
8.655	-41.255	16395	20248	0	588
8.150	-43.130	16403	20242	0	588
7.717	-47.386	16411	20229	0	588
6.131	-51.605	16420	20222	0	588
3.498	-54.165	16427	20209	0	588
0.180	-56.113	16435	20158	0	588
-2.344	-59.070	16442	20042	0	588
-5.013	-65.453	16449	19829	0	588
-8.114	-72.196	16454	19448	0	588
-12.081	-76.668	16456	18854	0	588
-14.281	-78.074	16459	18203	0	588
-16.048	-76.488	16462	17700	0	588
-16.120	-74.396	16466	17371	0	588
-15.759	-75.370	16470	17164	0	588
-16.552	-76.740	16475	17048	0	588
-16.805	-79.120	16480	16951	0	588
-15.975	-77.786	16484	16816	0	588
-13.920	-75.225	16487	16622	0	588
-9.520	-71.727	16489	16301	0	588
-7.465	-68.518	16491	15881	0	588
-3.678	-66.030	16492	15539	0	588
1.623	-61.522	16494	15320	0	588
9.160	-56.473	16496	15210	0	588
15.290	-50.343	16500	15217	0	588
19.582	-46.340	16502	15307	0	588
20.339	-44.645	16507	15410	0	588
18.283	-45.438	16510	15514	0	588
17.634	-44.789	16514	15623	0	588
19.005	-44.284	16517	15746	0	588
20.880	-43.743	16522	15888	0	588
20.519	-45.907	16525	16017	0	588
17.923	-50.090	16529	16081	0	588
13.812	-54.021	16531	16101	0	588
9.629	-57.627	16534	16088	0	588
6.022	-59.358	16536	16023	0	588
3.606	-60.656	16538	15914	0	588
1.803	-65.236	16540	15791	0	588
-1.479	-67.724	16540	15584	0	588
-2.236	-70.069	16538	15243	0	588
-2.452	-68.482	16537	14875	0	588
-0.938	-65.885	16536	14591	0	588
0.685	-63.433	16534	14423	0	588
1.623	-63.181	16534	14359	0	588
3.462	-63.433	16533	14320	0	588
5.193	-63.686	16532	14249	0	588
6.816	-60.151	16531	14146	0	588
9.556	-56.149	16530	14101	0	588
14.317	-49.802	16529	14152	0	588
18.644	-41.796	16529	14268	0	588
23.621	-36.459	16528	14372	0	588
26.145	-34.079	16527	14423	0	588
26.758	-33.682	16527	14514	0	588
23.044	-37.757	16527	14688	0	588
19.618	-42.517	16527	14888	0	588
15.362	-47.530	16527	15055	0	588
11.864	-51.533	16527	15191	0	588
8.943	-53.949	16528	15320	0	588
7.393	-55.680	16526	15410	0	588
5.986	-56.906	16524	15359	0	588
4.652	-58.060	16522	15159	0	588
4.688	-61.053	16519	14959	0	588
5.049	-61.810	16517	14888	0	588
5.914	-62.279	16515	14926	0	588
7.248	-60.332	16514	15036	0	588
6.239	-61.342	16514	15184	0	588
2.921	-63.036	16512	15326	0	588
0.180	-67.220	16513	15475	0	588
-1.515	-71.547	16512	15662	1	316
-2.164	-71.655	16512	15849	0	316
-0.938	-68.770	16513	16010	0	316
-1.406	-65.813	16512	16133	0	316
-2.669	-61.305	16511	16133	0	316
-4.327	-60.801	16508	15946	0	316
-3.570	-59.034	16504	15649	0	316
-3.462	-56.113	16500	15359	0	316
-1.947	-53.552	16496	15120	0	316
-2.380	-50.054	16494	14991	0	316
-3.462	-47.277	16489	14926	0	316
-4.219	-47.854	16486	14810	0	316
-4.003	-47.854	16482	14649	0	316
-6.347	-48.864	16478	14552	0	316
-7.825	-50.775	16475	14584	0	316
-10.638	-53.480	16473	14707	0	316
-12.189	-54.670	16470	14804	0	316
-12.261	-55.283	16466	14739	0	316
-12.081	-55.932	16459	14468	0	316
-10.999	-56.401	16452	14075	0	316
-9.737	-56.906	16445	13759	0	316
-8.114	-58.601	16441	13636	0	316
-6.996	-58.276	16435	13649	0	316
-5.049	-58.565	16431	13778	0	316
-4.904	-57.339	16429	14068	0	316
-3.390	-56.149	16428	14507	0	316
-1.551	-54.093	16427	15004	0	316
0.361	-53.913	16426	15417	0	316
1.587	-52.326	16424	15623	0	316
2.200	-52.470	16420	15591	0	316
1.839	-51.713	16417	15514	0	316
2.416	-50.162	16414	15584	0	316
4.580	-48.215	16412	15791	0	316
6.996	-45.871	16411	16055	0	316
9.917	-44.284	16410	16352	0	316
11.792	-44.897	16410	16642	0	316
11.287	-46.881	16409	16887	0	316
11.432	-47.890	16410	17106	0	316
12.622	-48.179	16410	17345	0	316
16.372	-46.123	16411	17558	0	316
17.526	-42.914	16410	17642	0	316
18.572	-43.166	16410	17635	0	316
16.336	-45.799	16410	17745	0	316
13.091	-49.080	16412	17984	0	316
12.586	-50.811	16413	18164	0	316
12.838	-49.153	16411	18100	0	316
15.146	-46.953	16410	17829	0	316
15.507	-45.078	16408	17558	0	316
15.435	-44.537	16407	17409	0	316
14.713	-46.340	16406	17313	0	316
13.704	-48.251	16405	17164	0	316
14.641	-47.494	16403	16945	0	316
16.805	-47.241	16400	16719	0	316
19.077	-46.268	16398	16493	0	316
21.060	-42.950	16394	16204	0	316
23.404	-42.697	16389	15855	0	316
23.008	-42.048	16387	15578	0	316
22.899	-42.157	16384	15449	0	316
20.303	-44.537	16384	15475	0	316
18.428	-44.501	16383	15604	0	316
17.670	-44.897	16382	15739	0	316
16.949	-45.871	16380	15823	0	316
14.605	-49.838	16379	15888	0	316
10.458	-56.798	16379	15991	0	316
4.255	-63.902	16378	16120	0	316
-1.803	-68.590	16379	16268	0	316
-5.914	-69.672	16378	16396	0	316
-7.537	-68.806	16378	16467	0	316
-8.583	-69.383	16377	16454	0	316
-8.943	-70.393	16375	16378	0	316
-8.727	-72.521	16372	16243	0	316
-7.970	-71.908	16369	15991	0	316
-6.167	-70.465	16365	15662	0	316
-5.734	-68.410	16361	15372	0	316
-5.481	-68.338	16357	15152	0	316
-5.229	-69.203	16352	14972	0	316
-6.419	-68.842	16350	14862	0	316
-5.229	-67.905	16347	14855	0	316
-3.426	-66.246	16343	14888	0	316
-2.777	-64.767	16340	14843	0	316
-2.452	-66.318	16336	14726	0	316
-0.938	-66.426	16332	14662	0	316
1.551	-65.489	16329	14739	0	316
6.780	-61.125	16327	14933	0	316
13.415	-54.886	16326	15152	0	316
18.716	-48.576	16324	15320	0	316
20.988	-46.484	16323	15494	0	316
19.365	-48.251	16322	15746	0	316
15.903	-52.506	16322	16043	0	316
11.143	-58.240	16322	16320	0	316
7.537	-61.342	16322	16538	0	316
7.321	-60.873	16323	16758	0	316
7.393	-59.647	16323	16990	0	316
8.583	-57.952	16323	17158	0	316
7.645	-57.303	16323	17216	0	316
6.816	-58.961	16322	17190	0	316
5.481	-60.837	16320	17080	0	316
5.013	-61.630	16318	16913	0	316
6.419	-62.423	16317	16764	0	316
7.717	-60.440	16314	16680	0	316
8.691	-58.889	16312	16584	0	316
10.783	-57.230	16309	16339	0	316
12.477	-55.391	16304	15952	0	316
15.867	-53.191	16300	15584	0	316
18.103	-51.064	16294	15262	0	316
19.798	-49.080	16291	15036	0	316
18.788	-49.044	16288	15030	0	316
17.598	-49.441	16286	15159	0	316
16.769	-50.018	16283	15191	0	316
17.995	-46.881	16279	15107	0	316
21.024	-43.166	16277	15101	0	316
25.532	-37.036	16276	15243	0	316
28.345	-33.141	16274	15462	0	316
31.158	-32.384	16272	15617	0	316
32.672	-33.069	16270	15694	0	316
35.521	-32.744	16270	15810	0	316
37.793	-31.446	16269	16030	0	316
41.255	-29.715	16269	16320	0	316
41.255	-27.010	16270	16571	0	316
39.452	-27.696	16269	16745	0	316
37.000	-29.138	16270	16906	0	316
34.223	-31.554	16272	17119	0	316
32.925	-33.970	16273	17384	0	316
31.987	-36.675	16274	17635	0	316
30.472	-38.983	16275	17790	0	316
28.705	-39.560	16276	17835	0	316
26.758	-41.363	16277	17848	0	316
26.506	-40.966	16278	17900	0	316
25.856	-41.183	16279	17958	0	316
26.073	-40.534	16280	17951	0	316
24.594	-40.858	16280	17893	0	316
23.981	-41.688	16280	17745	0	316
22.539	-41.940	16277	17409	0	316
21.457	-42.950	16275	16932	0	316
22.467	-41.327	16272	16532	0	316
21.745	-40.642	16270	16307	0	316
21.565	-40.173	16268	16152	0	316
18.716	-42.084	16265	15984	0	316
15.471	-45.799	16264	15836	0	316
12.982	-47.926	16262	15752	0	316
11.179	-51.785	16261	15739	0	316
9.484	-54.201	16260	15720	0	316
7.970	-57.807	16256	15584	0	316
3.354	-61.450	16253	15339	0	316
-0.541	-65.380	16250	15114	0	316
-4.724	-68.770	16245	14881	0	316
-6.491	-70.898	16241	14649	0	316
-6.491	-71.511	16239	14559	0	316
-5.806	-71.078	16237	14623	0	316
-3.390	-68.734	16235	14772	0	316
-2.344	-66.066	16234	14978	0	316
-2.993	-64.226	16233	15243	0	316
-4.580	-65.056	16233	15520	0	316
-9.052	-68.698	16233	15791	0	316
-11.396	-73.422	16235	16139	0	316
-12.297	-77.317	16238	16596	0	316
-10.783	-77.678	16241	17138	0	316
-6.744	-72.665	16246	17706	0	316
-1.911	-65.597	16251	18261	0	316
-0.252	-58.709	16257	18803	0	316
-0.541	-53.660	16264	19351	0	316
-3.570	-53.516	16271	19887	0	316
-7.825	-54.526	16279	20396	0	316
-11.179	-58.060	16287	20816	0	316
-13.631	-60.332	16295	21171	0	316
-14.208	-61.882	16303	21487	0	316
-15.435	-63.722	16311	21764	0	316
-14.569	-66.462	16321	21996	0	316
-14.749	-68.049	16330	22209	0	316
-16.264	-70.646	16340	22390	0	316
-18.464	-72.088	16348	22500	0	316
-21.818	-73.603	16358	22493	0	316
-24.811	-77.858	16366	22396	0	316
-27.407	-82.149	16375	22261	0	316
-28.201	-87.631	16384	22125	0	316
-30.292	-90.083	16391	21964	1	700
-30.761	-90.263	16398	21725	0	700
-30.364	-89.073	16406	21416	0	700
-27.624	-86.982	16414	21119	0	700
-24.955	-84.818	16421	20842	0	700
-21.457	-82.834	16425	20371	0	700
-16.444	-78.038	16428	19603	0	700
-13.559	-74.144	16431	18745	0	700
-11.107	-69.095	16433	18022	0	700
-10.530	-67.761	16435	17467	0	700
-9.304	-66.787	16438	17061	0	700
-9.376	-66.823	16441	16713	0	700
-6.383	-65.705	16444	16396	0	700
-4.291	-62.207	16447	16146	0	700
-2.885	-59.070	16451	15991	0	700
-1.875	-58.493	16455	15920	0	700
-1.947	-59.106	16459	15868	0	700
-0.685	-60.945	16463	15791	0	700
0.829	-63.541	16466	15726	0	700
2.380	-62.820	16470	15726	0	700
2.813	-62.532	16474	15797	0	700
2.308	-61.486	16480	15888	0	700
0.577	-63.072	16484	15972	0	700
-2.019	-65.236	16488	16062	0	700
-4.291	-68.554	16493	16146	0	700
-7.357	-72.485	16497	16210	0	700
-10.133	-74.576	16501	16249	0	700
-13.379	-77.714	16505	16281	0	700
-14.461	-78.255	16509	16281	0	700
-14.245	-78.074	16509	16088	0	700
-11.107	-77.245	16509	15662	0	700
-6.852	-74.396	16509	15204	0	700
-2.164	-70.105	16508	14868	0	700
0.793	-66.751	16508	14655	0	700
2.524	-63.830	16508	14494	0	700
3.931	-63.541	16506	14288	0	700
4.075	-63.577	16505	14030	0	700
5.517	-64.876	16503	13875	0	700
7.393	-63.505	16503	13888	0	700
8.366	-61.125	16503	13991	0	700
9.052	-59.574	16503	14088	0	700
9.845	-59.178	16503	14120	0	700
10.819	-58.781	16503	14146	0	700
10.242	-60.115	16503	14243	0	700
10.133	-59.394	16503	14404	0	700
7.645	-59.466	16503	14565	0	700
7.681	-60.909	16503	14681	0	700
6.347	-61.305	16503	14784	0	700
7.285	-64.226	16503	14888	0	700
5.409	-66.390	16502	14965	0	700
2.416	-69.239	16501	14952	0	700
-0.721	-69.708	16499	14804	0	700
-1.262	-67.869	16494	14481	0	700
0.793	-65.200	16489	14101	0	700
3.678	-61.955	16486	13939	0	700
5.842	-61.702	16484	14017	0	700
3.895	-63.397	16482	14172	0	700
0.974	-67.075	16480	14320	0	700
-2.633	-69.852	16480	14526	0	700
-3.606	-71.691	16479	14797	0	700
-0.757	-71.763	16479	15088	0	700
4.219	-69.095	16480	15397	0	700
8.691	-64.731	16481	15746	0	700
10.819	-60.692	16482	16055	0	700
11.215	-56.726	16482	16210	0	700
11.071	-55.572	16481	16255	0	700
9.701	-54.922	16482	16346	0	700
10.422	-55.283	16482	16545	0	700
8.511	-55.680	16482	16738	0	700
6.527	-58.817	16482	16809	0	700
2.921	-61.414	16481	16732	0	700
0.902	-65.633	16479	16513	0	700
-0.505	-65.417	16474	16152	0	700
-0.180	-63.577	16470	15739	0	700
1.226	-60.837	16466	15384	0	700
3.498	-58.961	16461	15094	0	700
3.101	-59.791	16458	14926	0	700
1.587	-64.010	16456	14939	0	700
-0.108	-66.931	16454	15068	0	700
-1.587	-68.951	16453	15223	0	700
-1.947	-68.951	16451	15352	0	700
-0.397	-68.518	16449	15391	0	700
0.829	-66.534	16446	15294	0	700
2.669	-64.876	16443	15197	0	700
5.229	-59.971	16441	15255	0	700
7.862	-56.329	16439	15404	0	700
11.937	-50.379	16438	15572	0	700
15.471	-48.359	16437	15765	0	700
19.005	-46.123	16438	16043	0	700
22.467	-45.618	16439	16372	0	700
24.414	-43.347	16440	16680	0	700
24.486	-42.697	16442	16964	0	700
21.277	-44.140	16443	17222	0	700
16.444	-48.828	16444	17435	0	700
11.756	-54.706	16445	17577	0	700
7.645	-57.952	16446	17642	0	700
7.862	-58.457	16447	17700	0	700
8.294	-55.247	16447	17751	0	700
9.196	-54.778	16447	17674	0	700
7.032	-56.293	16445	17422	0	700
2.092	-60.981	16444	17132	0	700
-3.210	-64.948	16441	16790	0	700
-6.275	-66.751	16436	16352	0	700
-7.212	-65.994	16432	15843	0	700
-6.058	-65.597	16426	15346	0	700
-3.318	-63.613	16421	14965	0	700
-2.596	-63.469	16418	14778	0	700
-1.659	-60.512	16415	14759	0	700
-0.685	-58.637	16413	14804	0	700
0.144	-56.257	16410	14855	0	700
1.479	-54.093	16409	14933	0	700
2.777	-51.929	16407	15062	0	700
4.760	-49.044	16406	15230	0	700
6.816	-45.655	16405	15378	0	700
9.881	-43.202	16403	15494	0	700
10.855	-40.173	16402	15591	0	700
13.163	-38.947	16400	15701	0	700
15.398	-36.675	16400	15862	0	700
17.670	-35.052	16400	16055	0	700
20.014	-32.276	16399	16223	0	700
20.483	-31.446	16400	16359	0	700
19.437	-32.312	16399	16506	0	700
16.697	-33.754	16399	16693	0	700
14.389	-35.665	16400	16861	0	700
14.281	-36.783	16400	16951	0	700
14.858	-38.370	16400	16958	0	700
13.559	-40.353	16398	16913	0	700
11.828	-43.563	16396	16790	0	700
9.304	-47.710	16395	16603	0	700
6.924	-48.972	16392	16396	0	700
9.052	-48.071	16389	16236	0	700
10.206	-46.232	16387	16062	0	700
11.323	-46.340	16384	15791	0	700
8.691	-46.989	16379	15404	0	700
6.491	-50.307	16373	14933	0	700
4.219	-52.831	16365	14384	0	700
4.183	-55.067	16358	13888	0	700
3.895	-56.221	16351	13539	0	700
2.596	-56.076	16345	13339	0	700
0.361	-56.762	16340	13275	0	700
-1.803	-55.932	16336	13365	0	700
-2.272	-54.995	16332	13578	0	700
-1.731	-54.526	16329	13849	0	700
0.108	-54.634	16326	14107	0	700
1.154	-53.985	16325	14410	0	700
3.318	-51.100	16323	14797	0	700
5.517	-48.720	16323	15230	0	700
6.960	-47.169	16321	15552	0	700
8.871	-48.612	16318	15636	0	700
7.429	-53.083	16314	15539	0	700
6.671	-56.581	16311	15481	0	700
4.724	-58.060	16308	15591	0	700
5.085	-55.175	16307	15797	0	700
9.268	-51.244	16305	16010	0	700
12.405	-48.756	16304	16236	0	700
14.064	-49.874	16304	16513	0	700
13.559	-51.965	16305	16848	0	700
9.917	-54.742	16306	17203	0	700
7.681	-57.375	16307	17545	0	700
5.770	-56.401	16308	17809	0	700
5.914	-56.942	16307	17848	0	700
6.275	-58.565	16305	17635	0	700
5.662	-59.611	16303	17416	0	700
7.825	-60.512	16302	17345	0	700
10.169	-58.420	16302	17390	0	700
12.081	-56.365	16302	17429	0	700
13.956	-53.336	16300	17371	0	700
12.730	-51.749	16299	17242	0	700
11.900	-51.893	16298	17171	0	700
10.710	-51.569	16298	17177	0	700
8.294	-52.470	16297	17203	0	700
7.789	-53.624	16297	17177	0	700
6.058	-56.834	16296	17087	0	700
2.416	-59.935	16295	16990	0	700
1.695	-62.676	16294	16919	0	700
0.288	-64.010	16294	16861	0	700
-0.721	-63.613	16293	16809	0	700
-0.216	-63.109	16292	16771	0	700
0.000	-63.866	16292	16771	0	700
0.144	-63.181	16292	16816	0	700
0.000	-64.190	16291	16842	0	700
-0.072	-65.633	16290	16745	0	700
-0.505	-65.849	16288	16519	0	700
-0.902	-67.292	16286	16230	0	700
-1.118	-67.256	16283	15959	0	700
-2.272	-66.751	16281	15791	0	700
-3.606	-64.803	16279	15765	0	700
-5.193	-64.623	16277	15810	0	700
-5.806	-65.921	16278	15920	0	700
-5.265	-65.056	16278	16088	0	700
-2.416	-66.210	16279	16301	0	700
-0.361	-65.885	16280	16519	0	700
-0.252	-66.895	16281	16738	0	700
-2.056	-68.518	16283	16925	0	700
-4.580	-71.295	16284	17087	0	700
-5.445	-71.727	16286	17222	0	700
-4.760	-68.915	16287	17325	0	700
-0.721	-63.794	16288	17448	0	700
2.272	-59.827	16291	17629	0	700
3.931	-57.843	16294	17816	0	700
5.770	-57.014	16295	17887	0	700
8.006	-58.060	16296	17809	0	700
10.530	-57.303	16295	17564	0	700
13.884	-55.103	16293	17190	0	700
15.687	-52.614	16293	16854	0	700
17.779	-50.703	16292	16687	0	700
19.870	-47.097	16293	16654	0	700
22.214	-42.157	16295	16796	0	700
25.243	-37.360	16298	17113	0	700
26.181	-33.826	16303	17532	0	700
25.568	-33.105	16308	17984	0	700
25.856	-34.547	16314	18403	0	700
26.650	-36.603	16319	18751	0	700
27.407	-36.675	16326	19093	0	700
27.948	-35.774	16333	19487	0	700
26.037	-35.197	16341	19913	0	700
21.745	-37.649	16350	20287	0	700
15.290	-42.806	16358	20642	0	700
9.484	-49.910	16368	20990	0	700
3.678	-57.663	16378	21319	0	700
-0.252	-62.099	16386	21596	0	700
-1.118	-64.118	16396	21771	0	700
0.577	-62.568	16405	21835	0	700
3.101	-59.719	16414	21771	0	700
4.904	-56.834	16419	21467	0	700
5.229	-56.257	16422	20861	0	700
2.596	-56.257	16426	20138	0	700
0.361	-58.168	16428	19448	1	908
-0.361	-56.798	16430	18809	0	908
1.551	-54.093	16431	18209	0	908
5.481	-50.667	16433	17680	0	908
8.150	-48.035	16435	17248	0	908
8.943	-49.261	16438	16919	0	908
8.619	-50.090	16440	16629	0	908
7.501	-51.352	16442	16275	0	908
8.619	-49.441	16442	15881	0	908
8.871	-47.566	16445	15636	0	908
8.727	-47.710	16448	15617	0	908
5.229	-48.936	16452	15726	0	908
1.911	-52.326	16456	15843	0	908
-1.659	-54.057	16459	15888	0	908
-3.354	-55.572	16463	15920	0	908
-4.724	-57.266	16466	16010	0	908
-4.940	-61.017	16471	16159	0	908
-5.986	-63.289	16475	16294	0	908
-8.330	-67.111	16479	16359	0	908
-10.891	-70.429	16482	16409	0	908
-16.048	-72.593	16487	16493	0	908
-20.159	-74.216	16491	16622	0	908
-22.106	-75.298	16495	16745	0	908
-21.818	-74.180	16500	16809	0	908
-18.464	-72.413	16503	16867	0	908
-15.218	-72.160	16508	16925	0	908
-13.595	-72.376	16511	16964	0	908
-11.900	-72.521	16515	16971	0	908
-11.576	-71.980	16518	16874	0	908
-8.402	-69.023	16516	16480	0	908
-4.364	-64.551	16513	15726	0	908
2.236	-58.276	16509	14920	0	908
7.789	-53.516	16506	14378	0	908
13.091	-48.539	16504	14107	0	908
16.552	-44.969	16503	13978	0	908
17.779	-45.005	16501	13907	0	908
17.851	-45.438	16500	13855	0	908
16.120	-48.287	16499	13797	0	908
13.595	-51.497	16497	13765	0	908
10.819	-54.454	16496	13791	0	908
8.691	-56.113	16495	13855	0	908
6.708	-57.483	16494	13881	0	908
5.734	-58.312	16492	13888	0	908
2.705	-61.738	16491	13965	0	908
0.000	-65.453	16491	14152	0	908
-4.183	-69.888	16491	14397	0	908
-8.727	-73.783	16491	14643	0	908
-11.756	-75.730	16491	14849	0	908
-13.992	-75.875	16489	14952	0	908
-15.795	-77.894	16486	14823	0	908
-18.103	-79.661	16482	14507	0	908
-19.257	-82.221	16478	14255	0	908
-19.221	-81.103	16474	14133	0	908
-17.526	-78.940	16470	14081	0	908
-14.136	-73.855	16468	14146	0	908
-11.323	-68.915	16467	14384	0	908
-9.232	-66.066	16467	14720	0	908
-6.816	-65.020	16466	15036	0	908
-5.878	-65.020	16466	15314	0	908
-2.669	-64.335	16467	15597	0	908
0.613	-61.991	16466	15862	0	908
5.626	-57.158	16466	16062	0	908
11.143	-49.982	16467	16236	0	908
17.959	-43.563	16466	16429	0	908
21.565	-40.137	16467	16648	0	908
20.880	-41.003	16468	16842	0	908
18.500	-44.248	16468	16996	0	908
14.497	-50.595	16470	17138	0	908
10.133	-56.257	16470	17254	0	908
9.484	-60.620	16470	17300	0	908
8.619	-64.515	16468	17184	0	908
8.547	-64.984	16467	16945	0	908
7.248	-64.335	16466	16777	0	908
6.816	-63.036	16465	16719	0	908
6.708	-61.846	16464	16661	0	908
7.898	-63.181	16462	16480	0	908
9.412	-64.551	16459	16223	0	908
10.674	-64.695	16457	16030	0	908
9.196	-63.289	16456	15984	0	908
8.330	-58.817	16455	16010	0	908
7.285	-56.870	16454	16030	0	908
9.268	-54.454	16451	15965	0	908
12.910	-53.805	16449	15849	0	908
16.444	-54.057	16448	15752	0	908
19.870	-52.651	16445	15707	0	908
21.349	-49.080	16443	15662	0	908
22.863	-44.681	16441	15565	0	908
25.676	-39.849	16439	15475	0	908
27.515	-37.432	16437	15462	0	908
29.066	-38.731	16436	15565	0	908
26.001	-43.671	16436	15746	0	908
22.575	-47.710	16435	15901	0	908
17.743	-50.884	16435	15997	0	908
14.605	-51.605	16434	16081	0	908
12.586	-52.651	16433	16152	0	908
9.484	-53.949	16432	16191	0	908
8.006	-56.690	16431	16178	0	908
5.157	-58.420	16429	16114	0	908
4.147	-58.457	16427	16055	0	908
1.839	-62.027	16424	15972	0	908
-1.767	-65.777	16421	15739	0	908
-4.075	-70.646	16416	15346	0	908
-5.662	-73.603	16408	14836	0	908
-3.714	-73.747	16400	14172	0	908
-1.551	-72.160	16390	13455	0	908
-0.325	-68.085	16383	12946	0	908
0.649	-63.902	16376	12714	0	908
1.659	-60.404	16370	12668	0	908
3.318	-58.781	16365	12739	0	908
4.183	-61.017	16358	12849	0	908
4.652	-65.020	16354	12978	0	908
2.560	-69.023	16349	13159	0	908
2.633	-68.842	16345	13352	0	908
4.940	-65.669	16340	13539	0	908
8.763	-58.925	16337	13791	0	908
14.533	-54.742	16333	14107	0	908
17.815	-50.992	16331	14481	0	908
18.788	-49.910	16329	14907	0	908
15.182	-52.506	16328	15359	0	908
9.665	-56.185	16328	15804	0	908
3.787	-61.161	16327	16217	0	908
-0.865	-64.551	16327	16616	0	908
-1.731	-67.544	16328	17035	0	908
-2.380	-69.636	16330	17487	0	908
-2.200	-70.862	16331	17919	0	908
-2.705	-72.304	16332	18229	0	908
-2.849	-73.530	16330	18229	0	908
-1.587	-72.088	16329	17964	0	908
-0.072	-69.311	16326	17713	0	908
3.967	-65.885	16324	17603	0	908
4.868	-65.308	16322	17525	0	908
4.616	-66.066	16321	17435	0	908
3.101	-69.852	16319	17351	0	908
1.731	-72.809	16316	17222	0	908
2.633	-72.304	16314	16984	0	908
4.977	-67.941	16309	16667	0	908
7.429	-62.928	16305	16307	0	908
8.330	-58.925	16298	15881	0	908
9.088	-58.817	16294	15462	0	908
7.862	-60.151	16289	15210	0	908
7.357	-60.837	16286	15152	0	908
4.436	-60.512	16283	15210	0	908
1.875	-59.971	16281	15372	0	908
-1.551	-62.964	16280	15572	0	908
-4.255	-67.616	16280	15765	0	908
-4.291	-71.980	16279	15997	0	908
-4.400	-75.298	16279	16307	0	908
-2.957	-73.819	16281	16667	0	908
-1.911	-72.449	16282	16990	0	908
-0.397	-72.376	16283	17222	0	908
-2.056	-74.216	16283	17364	0	908
-4.544	-76.704	16282	17351	0	908
-6.780	-79.445	16280	17184	0	908
-8.114	-78.759	16279	17003	0	908
-8.583	-76.920	16277	16900	0	908
-5.193	-72.990	16276	16880	0	908
-2.921	-69.852	16276	16971	0	908
-0.865	-68.590	16277	17151	0	908
-0.397	-69.203	16279	17358	0	908
-1.767	-71.547	16280	17532	0	908
-3.534	-72.665	16281	17609	0	908
-3.210	-71.150	16280	17487	0	908
1.298	-67.508	16279	17216	0	908
7.321	-63.145	16277	17016	0	908
13.595	-59.214	16277	16964	0	908
18.428	-58.781	16277	16984	0	908
18.031	-58.060	16277	17035	0	908
15.651	-57.916	16278	17080	0	908
11.576	-60.909	16279	17113	0	908
7.321	-62.784	16280	17158	0	908
3.246	-67.508	16281	17229	0	908
2.705	-71.186	16281	17274	0	908
2.560	-72.449	16281	17190	0	908
4.868	-70.934	16281	17003	0	908
5.554	-69.059	16280	16842	0	908
5.445	-69.023	16280	16758	0	908
2.596	-69.744	16280	16719	0	908
0.216	-71.763	16279	16661	0	908
-1.803	-73.783	16279	16513	0	908
-3.642	-73.386	16276	16288	0	908
-2.669	-71.980	16273	15972	0	908
-0.902	-69.852	16270	15610	0	908
1.767	-66.931	16266	15236	0	908
4.904	-65.885	16261	14868	0	908
7.573	-63.469	16258	14630	0	908
7.429	-63.253	16256	14610	0	908
6.563	-61.089	16255	14739	0	908
7.573	-59.755	16254	14933	0	908
7.537	-58.781	16253	15126	0	908
8.871	-61.089	16253	15326	0	908
9.520	-61.702	16253	15533	0	908
11.937	-61.233	16253	15759	0	908
13.776	-58.060	16254	15997	0	908
17.959	-52.975	16254	16204	0	908
19.293	-49.657	16255	16378	0	908
19.437	-50.090	16256	16538	0	908
16.985	-53.841	16256	16687	0	908
13.415	-59.899	16257	16809	0	908
9.304	-64.659	16257	16887	0	908
5.986	-68.338	16258	16951	0	908
2.380	-69.996	16258	16990	0	908
0.685	-69.888	16258	16919	0	908
0.757	-69.708	16256	16758	0	908
1.442	-69.744	16255	16642	0	908
3.823	-69.383	16255	16629	0	908
5.265	-68.446	16254	16629	0	908
8.547	-67.724	16253	16493	0	908
9.520	-67.833	16250	16172	0	908
9.268	-68.265	16246	15830	0	908
7.176	-70.141	16244	15662	0	908
5.409	-70.429	16244	15668	0	908
4.291	-68.193	16243	15765	0	908
5.409	-63.686	16243	15926	0	908
9.592	-59.358	16245	16204	0	908
12.297	-56.509	16247	16603	0	908
13.884	-56.437	16252	17106	0	908
15.507	-57.447	16256	17622	0	908
16.733	-60.043	16261	18106	0	908
16.516	-60.837	16267	18577	0	908
17.238	-61.414	16274	19087	0	908
16.012	-62.351	16282	19654	0	908
14.497	-62.928	16291	20229	0	908
13.776	-63.722	16299	20713	0	908
11.900	-66.246	16308	21106	0	908
10.566	-67.616	16316	21435	0	908
6.996	-69.347	16326	21719	0	908
2.993	-70.898	16336	22003	0	908
1.515	-71.619	16345	22254	0	908
1.262	-72.413	16354	22300	0	908
2.741	-73.422	16360	22003	0	908
4.436	-72.917	16366	21538	0	908
5.445	-71.763	16371	21138	0	908
4.760	-70.646	16377	20842	0	908
4.544	-69.419	16383	20596	1	932
4.003	-68.265	16389	20364	0	932
4.147	-68.626	16393	20054	0	932
4.075	-67.977	16399	19667	0	932
5.409	-67.184	16403	19300	0	932
5.914	-67.220	16407	18893	0	932
6.960	-64.840	16410	18351	0	932
10.530	-62.387	16411	17751	0	932
13.631	-58.709	16413	17203	0	932
17.959	-55.499	16416	16809	0	932
19.365	-54.057	16419	16622	0	932
18.031	-54.742	16424	16590	0	932
15.110	-55.752	16428	16603	0	932
11.937	-57.303	16433	16609	0	932
10.422	-59.106	16438	16661	0	932
8.330	-60.837	16445	16790	0	932
7.537	-63.469	16450	16958	0	932
5.049	-66.246	16457	17132	0	932
4.472	-65.957	16463	17280	0	932
3.787	-67.003	16470	17429	0	932
3.282	-66.607	16477	17609	0	932
1.839	-68.229	16484	17796	0	932
-0.288	-69.528	16491	17938	0	932
-0.325	-69.960	16497	17977	0	932
-0.325	-69.131	16503	17932	0	932
1.623	-67.328	16507	17803	0	932
2.633	-67.364	16510	17506	0	932
2.308	-67.580	16511	17048	0	932
0.721	-68.049	16514	16609	0	932
-1.515	-68.482	16514	16223	0	932
-1.983	-66.210	16515	15817	0	932
-0.036	-61.558	16516	15475	0	932
4.616	-55.896	16517	15262	0	932
11.107	-49.333	16519	15159	0	932
14.785	-44.825	16521	15139	0	932
15.831	-46.268	16523	15114	0	932
14.389	-51.208	16522	14959	0	932
11.612	-58.060	16522	14688	0	932
10.963	-62.171	16522	14475	0	932
9.448	-64.443	16522	14365	0	932
9.556	-63.469	16522	14281	0	932
7.248	-62.279	16520	14120	0	932
6.599	-62.928	16518	13901	0	932
6.131	-64.299	16517	13746	0	932
6.599	-65.741	16516	13733	0	932
8.475	-65.308	16516	13855	0	932
8.583	-65.380	16516	13991	0	932
8.258	-65.164	16516	14062	0	932
6.311	-64.515	16514	14081	0	932
4.652	-64.659	16513	14101	0	932
3.931	-63.794	16512	14146	0	932
5.914	-59.358	16510	14210	0	932
8.835	-57.988	16509	14236	0	932
11.540	-56.473	16505	14114	0	932
12.514	-57.339	16501	13804	0	932
11.576	-57.086	16495	13436	0	932
11.828	-55.680	16490	13184	0	932
13.884	-51.424	16484	12959	0	932
16.084	-47.890	16475	12604	0	932
19.618	-45.402	16468	12191	0	932
22.539	-44.464	16462	11984	0	932
22.070	-43.743	16456	12043	0	932
20.591	-45.366	16452	12230	0	932
18.031	-47.241	16447	12481	0	932
14.136	-51.461	16444	12784	0	932
10.494	-55.572	16441	13114	0	932
7.825	-59.538	16438	13475	0	932
4.508	-63.072	16436	13888	0	932
1.442	-64.695	16435	14339	0	932
-1.118	-65.200	16434	14778	0	932
-2.957	-66.102	16431	15101	0	932
-3.173	-63.758	16429	15307	0	932
-2.416	-63.613	16428	15533	0	932
-0.288	-62.315	16426	15843	0	932
0.649	-62.856	16426	16184	0	932
1.190	-64.695	16425	16480	0	932
0.108	-65.777	16426	16777	0	932
-1.226	-67.977	16427	17171	0	932
-1.551	-67.797	16429	17674	0	932
-0.685	-66.751	16433	18229	0	932
0.505	-64.443	16437	18745	0	932
1.010	-62.712	16441	19164	0	932
0.685	-61.810	16445	19519	0	932
1.262	-59.574	16450	19835	0	932
1.875	-58.781	16454	20074	0	932
3.931	-56.942	16457	20177	0	932
6.996	-54.995	16460	20190	0	932
11.828	-52.831	16463	20184	0	932
16.444	-50.343	16467	20196	0	932
20.014	-47.962	16472	20229	0	932
20.952	-46.232	16475	20203	0	932
21.457	-42.445	16478	20067	0	932
21.565	-40.317	16481	19854	0	932
23.044	-38.118	16483	19616	0	932
22.142	-38.911	16485	19364	0	932
19.437	-43.671	16487	19087	0	932
13.199	-51.388	16488	18764	0	932
5.193	-58.961	16488	18325	0	932
0.649	-64.515	16487	17758	0	932
-3.065	-66.138	16485	17184	0	932
-5.842	-67.184	16484	16700	0	932
-6.671	-64.587	16482	16372	0	932
-6.708	-62.928	16481	16075	0	932
-7.140	-60.801	16478	15668	0	932
-5.157	-58.457	16476	15197	0	932
-1.947	-57.988	16472	14765	0	932
1.010	-59.106	16468	14397	0	932
3.750	-60.368	16465	14126	0	932
3.787	-61.558	16463	13939	0	932
2.416	-63.217	16458	13759	0	932
-1.082	-62.892	16454	13539	0	932
-5.554	-63.145	16451	13352	0	932
-9.412	-63.830	16447	13268	0	932
-13.163	-62.712	16443	13268	0	932
-14.497	-61.810	16440	13281	0	932
-12.514	-58.240	16437	13294	0	932
-7.717	-56.870	16434	13372	0	932
-5.121	-57.735	16431	13526	0	932
-5.265	-60.548	16428	13707	0	932
-9.881	-63.902	16426	13875	0	932
-15.218	-67.003	16423	14010	0	932
-19.546	-66.174	16421	14152	0	932
-19.834	-65.957	16418	14326	0	932
-18.788	-65.020	16417	14578	0	932
-17.526	-65.128	16416	14849	0	932
-15.795	-65.344	16414	15068	0	932
-15.218	-65.741	16412	15255	0	932
-14.497	-65.128	16411	15417	0	932
-13.379	-64.840	16408	15520	0	932
-11.468	-64.803	16406	15533	0	932
-9.376	-61.558	16402	15488	0	932
-6.780	-60.188	16400	15436	0	932
-6.203	-55.608	16396	15391	0	932
-5.481	-52.614	16392	15301	0	932
-5.914	-51.821	16388	15184	0	932
-8.439	-53.805	16384	15126	0	932
-8.547	-57.699	16382	15152	0	932
-8.727	-59.863	16378	15159	0	932
-7.862	-60.728	16373	15049	0	932
-7.248	-58.312	16368	14862	0	932
-6.239	-57.591	16364	14739	0	932
-6.599	-57.158	16360	14778	0	932
-7.393	-58.673	16357	14920	0	932
-5.301	-58.096	16353	15049	0	932
-1.370	-56.690	16350	15088	0	932
1.118	-53.119	16347	15114	0	932
1.983	-51.569	16344	15223	0	932
-0.108	-53.444	16341	15397	0	932
-3.678	-57.843	16337	15481	0	932
-7.212	-61.450	16332	15339	0	932
-6.780	-62.532	16327	15152	0	932
-3.426	-60.224	16323	15139	0	932
-0.361	-56.437	16321	15301	0	932
4.760	-52.506	16319	15533	0	932
7.573	-51.172	16317	15759	0	932
8.439	-50.090	16316	15991	0	932
8.943	-49.080	16316	16275	0	932
5.481	-50.270	16315	16603	0	932
2.272	-51.857	16316	16938	0	932
-1.731	-54.454	16314	17138	0	932
-5.481	-54.454	16312	17067	0	932
-5.698	-52.795	16309	16822	0	932
-5.049	-47.890	16306	16667	0	932
-2.488	-43.599	16303	16667	0	932
0.974	-40.570	16302	16706	0	932
5.049	-39.091	16301	16738	0	932
7.573	-41.652	16298	16745	0	932
7.285	-44.104	16295	16674	0	932
5.157	-48.648	16293	16538	0	932
-0.974	-50.956	16291	16474	0	932
-7.862	-52.290	16289	16519	0	932
-14.353	-53.155	16288	16590	0	932
-19.906	-55.031	16286	16571	0	932
-22.286	-57.771	16284	16500	0	932
-22.431	-61.414	16283	16525	0	932
-18.860	-62.099	16283	16680	0	932
-15.326	-61.089	16284	16913	0	932
-12.838	-58.637	16284	17145	0	932
-11.287	-57.771	16284	17280	0	932
-12.045	-56.978	16283	17222	0	932
-11.720	-57.591	16280	16913	0	932
-10.783	-56.762	16274	16384	0	932
-7.573	-55.860	16268	15797	0	932
-3.859	-52.542	16263	15346	0	932
0.757	-49.261	16259	15139	0	932
5.517	-44.789	16256	15152	0	932
9.196	-42.625	16255	15326	0	932
12.766	-40.245	16254	15597	0	932
13.668	-41.688	16255	15868	0	932
14.172	-43.851	16255	16139	0	932
11.612	-46.268	16256	16435	0	932
10.278	-48.251	16258	16796	0	932
8.583	-49.044	16260	17177	0	932
8.439	-50.126	16263	17525	0	932
9.160	-49.044	16265	17829	0	932
8.835	-49.297	16267	18100	0	932
7.898	-48.576	16270	18300	0	932
7.609	-48.864	16272	18422	0	932
6.239	-50.775	16275	18519	0	932
7.862	-52.038	16277	18622	0	932
6.924	-54.670	16280	18687	0	932
5.842	-56.257	16282	18667	0	932
2.669	-58.781	16282	18519	0	932
-0.072	-59.611	16281	18171	0	932
-1.370	-60.368	16279	17622	0	932
-1.515	-61.342	16275	17054	0	932
0.433	-60.728	16272	16571	0	932
2.019	-60.512	16270	16210	0	932
3.570	-59.070	16268	16023	0	932
5.409	-56.365	16269	16088	0	932
6.275	-52.470	16272	16365	0	932
8.943	-49.838	16274	16713	0	932
9.773	-47.638	16277	17042	0	932
11.360	-47.999	16282	17409	0	932
13.271	-48.539	16288	17867	0	932
13.631	-49.730	16295	18371	0	932
16.156	-48.900	16301	18867	0	932
17.382	-48.648	16309	19293	0	932
17.598	-48.215	16316	19687	0	932
14.966	-50.162	16324	20100	0	932
11.432	-53.841	16333	20545	0	932
7.789	-57.447	16342	20958	0	932
6.635	-58.961	16352	21274	0	932
7.176	-57.988	16360	21422	0	932
10.494	-54.959	16365	21261	0	932
11.107	-53.155	16370	20854	0	932
10.855	-53.228	16375	20474	0	932
9.016	-55.824	16381	20242	0	932
5.770	-60.620	16385	20087	1	912
2.560	-64.263	16392	19977	0	912
0.902	-66.931	16398	19874	0	912
-0.325	-66.895	16405	19771	0	912
-0.649	-67.436	16411	19667	0	912
0.216	-65.957	16417	19487	0	912
0.902	-65.597	16422	19164	0	912
2.741	-63.289	16425	18732	0	912
3.750	-60.115	16428	18274	0	912
3.462	-56.834	16432	17900	0	912
3.318	-54.093	16436	17667	0	912
0.577	-53.877	16440	17500	0	912
-1.262	-54.742	16443	17274	0	912
-0.902	-56.365	16446	16971	0	912
0.757	-55.860	16450	16725	0	912
3.895	-53.877	16454	16609	0	912
7.717	-52.254	16459	16609	0	912
9.052	-50.054	16463	16609	0	912
8.366	-50.162	16467	16551	0	912
6.527	-52.218	16470	16474	0	912
2.596	-54.562	16474	16422	0	912
-1.983	-57.014	16478	16396	0	912
-6.094	-59.827	16481	16339	0	912
-10.314	-63.541	16482	16114	0	912
-13.343	-67.364	16482	15759	0	912
-15.795	-69.672	16484	15430	0	912
-17.598	-71.547	16485	15236	0	912
-20.267	-71.511	16486	15133	0	912
-22.935	-69.167	16487	15081	0	912
-24.486	-66.679	16489	15068	0	912
-23.729	-65.417	16491	15107	0	912
-23.224	-64.190	16494	15178	0	912
-20.267	-63.036	16495	15255	0	912
-17.598	-62.964	16498	15339	0	912
-15.326	-62.820	16501	15436	0	912
-11.360	-60.909	16502	15552	0	912
-8.042	-59.106	16505	15649	0	912
-3.390	-55.536	16507	15720	0	912
0.649	-50.992	16509	15810	0	912
4.219	-45.618	16512	15946	0	912
6.347	-40.462	16515	16055	0	912
9.340	-39.199	16515	15997	0	912
10.242	-38.262	16515	15804	0	912
11.504	-40.606	16515	15630	0	912
10.963	-42.806	16515	15565	0	912
9.737	-47.061	16516	15539	0	912
7.140	-48.864	16515	15455	0	912
5.950	-50.379	16515	15307	0	912
5.229	-51.208	16513	15133	0	912
6.131	-50.631	16511	14888	0	912
4.255	-50.884	16508	14610	0	912
3.173	-50.811	16507	14443	0	912
2.452	-50.739	16504	14372	0	912
4.039	-47.926	16504	14391	0	912
8.402	-46.989	16503	14526	0	912
10.746	-47.782	16503	14739	0	912
11.360	-50.775	16504	14946	0	912
8.402	-54.201	16503	15107	0	912
5.914	-55.247	16504	15268	0	912
5.806	-52.470	16505	15488	0	912
9.845	-50.739	16507	15746	0	912
12.477	-48.576	16508	15972	0	912
13.776	-49.225	16509	16120	0	912
14.461	-50.811	16509	16236	0	912
13.379	-50.920	16511	16372	0	912
14.749	-49.333	16510	16480	0	912
17.057	-48.792	16511	16525	0	912
18.608	-45.907	16511	16513	0	912
20.411	-45.799	16511	16480	0	912
20.303	-43.887	16511	16435	0	912
21.024	-43.491	16510	16359	0	912
21.132	-41.399	16510	16243	0	912
20.087	-40.714	16507	16101	0	912
18.103	-42.589	16503	15804	0	912
14.533	-47.313	16498	15210	0	912
11.035	-51.821	16489	14417	0	912
8.511	-55.608	16482	13714	0	912
9.845	-54.634	16475	13294	0	912
10.097	-52.001	16470	13159	0	912
9.845	-51.028	16466	13230	0	912
6.888	-53.624	16463	13378	0	912
1.154	-58.673	16459	13507	0	912
-2.777	-62.892	16456	13617	0	912
-2.849	-63.000	16452	13668	0	912
-1.190	-60.656	16447	13681	0	912
2.813	-57.555	16444	13752	0	912
4.724	-57.519	16441	13901	0	912
6.419	-60.043	16438	14107	0	912
6.022	-62.099	16436	14410	0	912
7.248	-63.469	16435	14797	0	912
6.527	-62.099	16434	15184	0	912
7.248	-60.079	16434	15552	0	912
7.717	-56.581	16434	15920	0	912
9.088	-53.228	16434	16307	0	912
12.622	-47.386	16435	16687	0	912
17.057	-42.842	16436	17048	0	912
20.483	-37.973	16437	17351	0	912
21.421	-36.206	16438	17584	0	912
19.618	-38.118	16439	17777	0	912
13.668	-42.157	16440	17932	0	912
8.547	-48.107	16441	18054	0	912
4.219	-53.696	16441	18106	0	912
5.193	-57.050	16440	17945	0	912
5.698	-57.627	16436	17525	0	912
6.167	-58.637	16431	16990	0	912
5.517	-57.699	16428	16558	0	912
3.642	-57.050	16424	16236	0	912
3.426	-54.886	16419	15894	0	912
5.157	-52.398	16413	15443	0	912
8.330	-51.352	16407	14946	0	912
8.655	-52.470	16400	14539	0	912
8.943	-54.670	16396	14359	0	912
8.691	-55.463	16393	14410	0	912
10.350	-55.499	16391	14604	0	912
10.963	-53.949	16389	14804	0	912
10.891	-54.778	16386	14952	0	912
7.717	-58.673	16385	15101	0	912
4.327	-62.495	16384	15339	0	912
0.505	-64.335	16384	15643	0	912
-0.180	-62.892	16384	15894	0	912
1.515	-57.699	16383	16055	0	912
2.993	-53.696	16382	16210	0	912
4.291	-52.254	16382	16403	0	912
3.318	-54.922	16382	16635	0	912
3.931	-57.916	16382	16848	0	912
3.065	-60.584	16382	16984	0	912
4.977	-58.637	16382	17067	0	912
6.131	-54.418	16382	17151	0	912
7.789	-50.343	16382	17261	0	912
6.094	-48.684	16382	17364	0	912
3.967	-49.910	16381	17300	0	912
2.200	-53.047	16377	16938	0	912
0.649	-56.257	16373	16396	0	912
2.308	-56.545	16368	15991	0	912
5.301	-53.444	16365	15784	0	912
8.078	-48.900	16362	15707	0	912
10.963	-45.186	16360	15720	0	912
11.540	-42.734	16358	15752	0	912
12.946	-44.248	16355	15701	0	912
14.425	-46.484	16353	15591	0	912
16.336	-48.467	16351	15546	0	912
17.346	-47.494	16348	15597	0	912
17.093	-47.530	16347	15655	0	912
15.435	-46.700	16344	15630	0	912
11.648	-48.539	16341	15533	0	912
9.881	-51.064	16339	15488	0	912
9.989	-52.290	16337	15546	0	912
11.576	-52.110	16336	15701	0	912
13.956	-48.900	16335	15862	0	912
15.939	-47.025	16333	15952	0	912
14.389	-46.159	16332	16010	0	912
10.097	-49.766	16331	16126	0	912
6.275	-53.805	16331	16281	0	912
1.370	-57.266	16330	16372	0	912
-0.938	-58.529	16328	16352	0	912
-0.974	-57.591	16325	16223	0	912
0.541	-56.185	16323	16055	0	912
3.029	-55.788	16319	15881	0	912
4.003	-56.762	16316	15714	0	912
5.770	-55.572	16312	15514	0	912
6.996	-52.614	16305	15178	0	912
8.114	-48.143	16300	14784	0	912
11.215	-45.222	16295	14597	0	912
12.946	-43.671	16293	14655	0	912
14.208	-46.159	16289	14797	0	912
14.497	-46.881	16288	14972	0	912
14.605	-45.799	16286	15191	0	912
15.831	-41.435	16285	15423	0	912
16.192	-38.695	16284	15655	0	912
16.336	-38.586	16283	15914	0	912
14.281	-40.894	16284	16210	0	912
12.261	-43.022	16283	16474	0	912
10.638	-44.537	16282	16590	0	912
9.484	-42.625	16281	16558	0	912
10.169	-41.940	16279	16564	0	912
10.097	-42.661	16279	16680	0	912
8.150	-46.520	16278	16796	0	912
8.150	-48.972	16277	16764	0	912
7.032	-51.785	16274	16629	0	912
7.501	-52.110	16272	16558	0	912
6.383	-52.074	16271	16577	0	912
4.652	-51.785	16270	16629	0	912
3.462	-52.290	16269	16667	0	912
3.606	-52.506	16268	16693	0	912
3.823	-53.155	16268	16745	0	912
5.301	-54.454	16267	16842	0	912
3.787	-56.870	16267	16919	0	912
3.750	-57.916	16266	16861	0	912
3.678	-57.843	16262	16590	0	912
7.465	-53.805	16260	16307	0	912
13.415	-48.503	16258	16249	0	912
17.670	-43.383	16259	16416	0	912
20.050	-41.075	16258	16635	0	912
20.591	-40.678	16260	16796	0	912
17.923	-42.770	16260	16951	0	912
15.110	-44.573	16262	17145	0	912
12.550	-47.999	16264	17384	0	912
12.009	-48.684	16266	17635	0	912
11.251	-51.244	16269	17893	0	912
11.648	-52.254	16273	18164	0	912
11.323	-51.424	16276	18422	0	912
10.566	-49.333	16279	18584	0	912
9.737	-48.035	16282	18667	0	912
10.710	-45.907	16287	18880	0	912
12.261	-46.700	16293	19261	0	912
12.586	-49.657	16300	19629	0	912
14.028	-50.595	16305	19861	0	912
13.271	-51.605	16310	19996	0	912
12.261	-51.461	16317	20164	0	912
9.917	-51.641	16324	20396	0	912
7.248	-52.651	16331	20609	0	912
4.904	-54.057	16338	20680	0	912
3.714	-54.886	16344	20603	0	912
5.301	-54.886	16350	20545	0	912
6.167	-53.336	16358	20590	0	912
6.131	-52.362	16365	20674	0	912
6.058	-51.965	16372	20725	0	912
4.544	-54.021	16381	20687	1	868
4.039	-56.149	16386	20622	0	868
3.210	-61.125	16394	20590	0	868
4.544	-61.702	16402	20596	0	868
4.580	-61.269	16410	20564	0	868
6.058	-57.988	16418	20454	0	868
6.131	-55.752	16425	20319	0	868
7.104	-54.995	16433	20196	0	868
6.491	-56.004	16441	20100	0	868
6.275	-59.502	16448	19990	0	868
3.859	-61.774	16456	19835	0	868
0.721	-64.226	16463	19648	0	868
-2.524	-63.686	16470	19461	0	868
-3.498	-63.541	16477	19261	0	868
-1.839	-61.414	16483	19016	0	868
2.308	-60.476	16488	18635	0	868
5.157	-58.529	16489	17964	0	868
8.655	-56.798	16487	16913	0	868
11.035	-52.362	16484	15726	0	868
11.540	-49.621	16481	14746	0	868
11.937	-46.232	16480	14210	0	868
11.648	-45.186	16481	14036	0	868
9.773	-46.556	16482	13959	0	868
9.484	-47.277	16482	13804	0	868
7.898	-50.703	16482	13630	0	868
7.645	-53.119	16483	13572	0	868
6.239	-55.175	16485	13655	0	868
6.888	-56.004	16487	13823	0	868
7.357	-55.608	16489	13978	0	868
7.934	-54.490	16490	14081	0	868
9.088	-53.300	16492	14217	0	868
7.681	-53.083	16495	14430	0	868
5.986	-53.877	16497	14694	0	868
3.570	-56.437	16501	14959	0	868
1.262	-57.339	16503	15184	0	868
1.370	-58.132	16505	15384	0	868
2.416	-56.149	16508	15584	0	868
4.868	-53.119	16510	15772	0	868
4.688	-50.992	16513	15920	0	868
3.101	-50.559	16515	15959	0	868
-0.180	-52.975	16515	15868	0	868
-2.560	-54.742	16515	15714	0	868
-2.849	-56.076	16515	15584	0	868
-1.262	-55.932	16515	15507	0	868
0.938	-53.552	16515	15430	0	868
3.318	-51.641	16515	15352	0	868
3.750	-51.785	16515	15326	0	868
3.065	-53.985	16514	15301	0	868
4.255	-55.824	16512	15159	0	868
4.652	-54.454	16510	14946	0	868
6.708	-51.461	16509	14830	0	868
9.412	-48.395	16508	14810	0	868
9.520	-46.268	16506	14739	0	868
10.169	-48.323	16504	14617	0	868
8.583	-49.946	16502	14559	0	868
9.052	-50.162	16501	14604	0	868
8.186	-49.008	16500	14688	0	868
7.898	-47.746	16498	14688	0	868
7.573	-49.008	16495	14630	0	868
7.212	-48.900	16494	14636	0	868
9.304	-50.054	16493	14759	0	868
10.530	-49.657	16492	14933	0	868
12.586	-50.270	16491	15049	0	868
12.766	-50.054	16489	15081	0	868
11.828	-51.569	16487	15088	0	868
8.294	-53.228	16484	15023	0	868
6.058	-54.562	16479	14746	0	868
3.606	-55.427	16473	14359	0	868
4.003	-54.562	16468	14107	0	868
6.167	-51.569	16465	14062	0	868
9.809	-47.313	16463	14178	0	868
12.333	-44.428	16461	14436	0	868
13.740	-42.878	16460	14772	0	868
12.514	-45.763	16460	15120	0	868
13.018	-47.818	16460	15481	0	868
12.802	-48.395	16461	15868	0	868
13.379	-46.664	16462	16268	0	868
15.038	-42.806	16463	16642	0	868
15.651	-42.373	16465	16971	0	868
15.471	-41.471	16466	17267	0	868
15.038	-43.815	16468	17532	0	868
15.182	-45.546	16470	17725	0	868
13.992	-47.277	16471	17829	0	868
12.477	-47.962	16472	17887	0	868
10.891	-49.730	16473	17919	0	868
7.068	-50.343	16473	17874	0	868
4.724	-50.523	16471	17584	0	868
2.957	-51.533	16466	17003	0	868
2.524	-50.884	16460	16320	0	868
2.777	-50.307	16454	15681	0	868
2.633	-48.864	16447	15126	0	868
1.551	-47.205	16441	14623	0	868
0.649	-48.612	16435	14223	0	868
-0.108	-51.172	16430	13946	0	868
-0.974	-55.103	16424	13739	0	868
-1.839	-59.250	16418	13597	0	868
-2.669	-60.945	16414	13552	0	868
-3.606	-59.611	16410	13597	0	868
-3.570	-57.555	16407	13733	0	868
-0.974	-52.578	16405	14010	0	868
2.885	-48.071	16403	14365	0	868
6.888	-45.655	16401	14720	0	868
10.638	-42.409	16401	15055	0	868
12.874	-40.173	16400	15391	0	868
14.172	-39.055	16400	15746	0	868
14.966	-37.613	16401	16146	0	868
16.480	-37.360	16402	16551	0	868
18.392	-37.432	16402	16900	0	868
18.356	-37.613	16403	17158	0	868
17.093	-39.019	16404	17396	0	868
13.776	-43.166	16406	17648	0	868
9.773	-47.494	16407	17893	0	868
6.167	-52.506	16409	18035	0	868
3.967	-55.067	16408	18022	0	868
3.498	-55.031	16408	17874	0	868
2.596	-54.201	16406	17700	0	868
3.931	-53.191	16405	17513	0	868
4.039	-52.795	16403	17287	0	868
4.075	-53.985	16400	17042	0	868
3.606	-55.175	16398	16777	0	868
0.721	-57.266	16394	16416	0	868
-1.911	-59.430	16389	15997	0	868
-3.426	-59.502	16386	15655	0	868
-5.085	-59.971	16382	15397	0	868
-4.472	-60.837	16377	15049	0	868
-2.344	-59.466	16370	14552	0	868
1.046	-57.050	16364	14088	0	868
6.311	-51.821	16358	13843	0	868
10.422	-46.123	16354	13810	0	868
14.208	-41.760	16350	13914	0	868
14.821	-41.652	16347	14068	0	868
15.074	-42.265	16344	14204	0	868
15.110	-41.976	16342	14378	0	868
15.903	-40.209	16340	14617	0	868
17.310	-37.432	16338	14901	0	868
19.185	-36.062	16337	15172	0	868
19.726	-37.432	16334	15359	0	868
19.005	-38.911	16331	15372	0	868
17.238	-40.498	16327	15275	0	868
14.713	-42.445	16324	15275	0	868
12.946	-43.202	16322	15423	0	868
11.756	-45.258	16321	15604	0	868
9.629	-44.789	16317	15707	0	868
8.511	-45.907	16315	15759	0	868
6.058	-46.592	16314	15868	0	868
3.859	-49.585	16312	16094	0	868
2.200	-53.011	16312	16378	0	868
0.288	-56.473	16312	16687	0	868
-0.072	-57.086	16314	17022	0	868
2.164	-53.732	16315	17332	0	868
6.239	-48.972	16316	17596	0	868
10.602	-43.996	16318	17822	0	868
14.208	-39.849	16318	18009	0	868
13.740	-41.183	16319	18125	0	868
11.287	-44.464	16320	18106	0	868
5.265	-49.477	16319	17984	0	868
0.613	-52.687	16319	17893	0	868
-1.190	-53.228	16319	17867	0	868
0.361	-51.497	16319	17822	0	868
3.534	-47.710	16318	17661	0	868
7.032	-45.474	16317	17416	0	868
7.898	-45.078	16314	17171	0	868
7.393	-45.546	16312	16913	0	868
6.203	-47.313	16309	16635	0	868
4.147	-49.549	16308	16409	0	868
3.101	-49.766	16305	16249	0	868
0.613	-50.631	16304	16139	0	868
-0.721	-50.992	16303	16107	0	868
-0.469	-50.415	16302	16146	0	868
-0.036	-50.198	16302	16204	0	868
0.793	-51.028	16301	16243	0	868
1.479	-52.074	16301	16281	0	868
1.875	-52.975	16301	16346	0	868
2.380	-53.336	16301	16378	0	868
3.570	-51.785	16299	16326	0	868
4.652	-50.018	16298	16217	0	868
7.248	-48.107	16297	16152	0	868
6.058	-46.917	16296	16165	0	868
3.895	-46.772	16295	16223	0	868
2.813	-45.150	16295	16294	0	868
2.128	-45.727	16295	16339	0	868
3.714	-44.897	16295	16372	0	868
7.717	-44.969	16294	16390	0	868
8.727	-45.078	16293	16384	0	868
9.376	-45.510	16293	16378	0	868
7.681	-46.376	16293	16378	0	868
7.645	-46.087	16293	16403	0	868
7.862	-46.556	16291	16396	0	868
9.773	-45.294	16289	16255	0	868
10.133	-45.871	16286	15991	0	868
10.350	-47.674	16284	15739	0	868
9.701	-48.684	16281	15591	0	868
7.537	-50.018	16279	15481	0	868
5.986	-50.343	16276	15333	0	868
3.137	-51.280	16272	15165	0	868
0.361	-53.372	16270	15068	0	868
-2.560	-55.716	16267	15075	0	868
-3.678	-57.303	16266	15159	0	868
-1.731	-55.752	16266	15359	0	868
0.469	-53.660	16266	15591	0	868
4.075	-51.749	16265	15759	0	868
6.022	-51.172	16264	15836	0	868
7.429	-51.965	16264	15933	0	868
8.979	-52.434	16264	16172	0	868
9.953	-51.461	16266	16519	0	868
12.297	-49.261	16270	16958	0	868
12.153	-47.422	16273	17467	0	868
13.018	-46.412	16279	18042	0	868
13.127	-46.195	16284	18622	0	868
14.858	-45.510	16291	19171	0	868
17.166	-42.842	16298	19713	0	868
19.437	-41.327	16306	20267	0	868
20.375	-38.658	16315	20777	0	868
17.887	-38.695	16323	21184	0	868
15.290	-39.596	16331	21493	0	868
11.107	-43.960	16340	21732	0	868
6.996	-47.602	16349	21945	0	868
3.101	-52.939	16357	22061	0	868
0.108	-57.843	16365	22061	0	868
-3.101	-61.017	16372	22003	0	868
-6.888	-63.902	16379	21829	0	868
-8.006	-64.659	16384	21519	0	868
-7.898	-65.200	16390	21171	0	868
-7.285	-63.722	16396	20867	1	892
-3.426	-60.873	16402	20654	0	892
0.144	-58.925	16410	20545	0	892
1.370	-56.040	16417	20442	0	892
1.875	-53.444	16423	20216	0	892
2.056	-51.100	16428	19829	0	892
3.065	-48.936	16434	19454	0	892
5.301	-47.169	16440	19196	0	892
6.563	-46.195	16446	19003	0	892
8.114	-48.359	16451	18777	0	892
7.753	-50.884	16456	18506	0	892
7.537	-52.326	16461	18261	0	892
8.222	-50.343	16468	18087	0	892
10.350	-46.087	16473	17977	0	892
10.422	-40.498	16479	17874	0	892
9.989	-37.829	16484	17738	0	892
7.032	-41.580	16489	17584	0	892
3.931	-45.871	16495	17416	0	892
0.072	-50.703	16499	17216	0	892
-2.236	-52.290	16503	17003	0	892
-2.056	-51.461	16507	16771	0	892
-1.479	-50.739	16508	16365	0	892
-0.108	-51.713	16507	15701	0	892
1.046	-53.588	16506	15036	0	892
1.551	-55.463	16506	14630	0	892
2.669	-55.752	16507	14455	0	892
2.777	-55.896	16509	14449	0	892
3.534	-56.076	16511	14514	0	892
2.993	-57.375	16513	14514	0	892
1.947	-58.781	16514	14449	0	892
1.839	-57.952	16515	14430	0	892
3.462	-56.545	16517	14507	0	892
4.977	-54.165	16519	14604	0	892
6.816	-52.146	16520	14623	0	892
8.330	-50.379	16521	14591	0	892
8.475	-49.369	16522	14610	0	892
7.898	-48.612	16524	14739	0	892
8.294	-47.818	16527	14952	0	892
6.780	-48.323	16529	15159	0	892
6.022	-48.900	16530	15301	0	892
5.590	-50.487	16532	15430	0	892
5.049	-50.090	16535	15597	0	892
7.789	-49.080	16537	15784	0	892
9.124	-47.962	16538	15901	0	892
12.117	-46.592	16540	15894	0	892
11.756	-46.304	16540	15791	0	892
10.746	-48.251	16540	15655	0	892
9.052	-49.477	16540	15591	0	892
6.708	-50.595	16541	15623	0	892
6.383	-50.234	16542	15688	0	892
4.652	-51.893	16543	15726	0	892
2.993	-53.552	16543	15759	0	892
1.731	-55.247	16544	15804	0	892
1.298	-57.627	16543	15759	0	892
2.128	-58.961	16543	15636	0	892
4.940	-57.771	16543	15584	0	892
5.373	-55.427	16543	15617	0	892
5.878	-52.903	16544	15675	0	892
6.599	-49.585	16544	15739	0	892
7.104	-46.845	16544	15772	0	892
8.547	-45.727	16544	15746	0	892
11.143	-45.655	16543	15655	0	892
11.179	-45.943	16540	15468	0	892
10.891	-46.953	16538	15204	0	892
10.386	-46.304	16535	14997	0	892
8.547	-47.133	16534	14907	0	892
8.907	-48.503	16531	14855	0	892
7.285	-50.234	16529	14694	0	892
6.094	-54.201	16524	14410	0	892
3.823	-56.509	16519	14159	0	892
1.659	-58.204	16517	14088	0	892
-1.154	-59.502	16515	14172	0	892
-3.065	-60.224	16512	14288	0	892
-4.075	-62.748	16510	14365	0	892
-4.291	-63.758	16507	14430	0	892
-3.101	-64.948	16503	14410	0	892
-1.947	-63.325	16498	14165	0	892
0.685	-61.089	16491	13765	0	892
0.829	-57.339	16484	13410	0	892
1.010	-56.834	16478	13178	0	892
0.000	-58.312	16472	13088	0	892
-2.092	-60.584	16468	13191	0	892
-2.452	-62.171	16464	13449	0	892
-2.524	-58.817	16461	13752	0	892
-1.767	-54.309	16459	14081	0	892
-2.128	-47.746	16458	14462	0	892
-2.633	-43.455	16457	14875	0	892
-2.921	-41.652	16457	15314	0	892
-3.606	-40.678	16456	15759	0	892
-1.911	-39.993	16458	16204	0	892
-0.938	-40.245	16458	16603	0	892
-1.118	-40.678	16459	16938	0	892
-1.731	-41.399	16459	17216	0	892
-3.029	-43.058	16460	17525	0	892
-4.652	-46.015	16463	17874	0	892
-8.150	-50.198	16463	18106	0	892
-10.855	-52.939	16463	18119	0	892
-12.802	-54.562	16462	17990	0	892
-13.559	-53.841	16461	17880	0	892
-9.881	-51.713	16461	17835	0	892
-7.357	-50.559	16460	17777	0	892
-6.275	-54.345	16458	17545	0	892
-7.898	-58.060	16453	17074	0	892
-10.674	-60.007	16449	16558	0	892
-12.153	-58.601	16446	16230	0	892
-9.809	-55.824	16443	16075	0	892
-8.763	-53.660	16441	15991	0	892
-7.357	-53.480	16438	15920	0	892
-7.501	-54.562	16437	15894	0	892
-5.626	-53.877	16435	15914	0	892
-1.370	-49.297	16434	15959	0	892
4.147	-44.392	16432	15991	0	892
9.196	-40.606	16431	16017	0	892
9.016	-39.957	16430	16049	0	892
6.996	-42.517	16430	16139	0	892
4.075	-44.032	16429	16268	0	892
2.380	-45.799	16428	16372	0	892
4.436	-45.294	16427	16390	0	892
6.094	-45.907	16426	16372	0	892
7.140	-45.691	16424	16339	0	892
8.042	-48.251	16423	16314	0	892
5.409	-50.379	16422	16281	0	892
2.344	-51.028	16420	16210	0	892
1.190	-50.595	16416	16043	0	892
1.731	-49.730	16412	15720	0	892
2.921	-49.008	16406	15262	0	892
2.705	-48.972	16400	14784	0	892
2.056	-51.893	16395	14436	0	892
-1.262	-55.860	16389	14262	0	892
-4.400	-59.214	16385	14172	0	892
-5.481	-60.909	16382	14068	0	892
-7.176	-62.568	16376	13926	0	892
-7.393	-60.404	16370	13772	0	892
-5.806	-58.276	16365	13668	0	892
-2.849	-54.922	16361	13701	0	892
0.974	-51.497	16356	13823	0	892
3.931	-49.405	16352	13939	0	892
2.849	-50.234	16349	14107	0	892
2.272	-51.136	16347	14397	0	892
1.947	-53.047	16344	14765	0	892
4.147	-52.074	16343	15133	0	892
8.763	-48.864	16342	15443	0	892
13.668	-44.140	16341	15759	0	892
15.435	-41.399	16341	16114	0	892
15.543	-40.642	16341	16506	0	892
13.848	-42.012	16342	16887	0	892
11.720	-45.005	16343	17209	0	892
12.333	-45.114	16344	17467	0	892
12.297	-45.546	16344	17654	0	892
12.441	-44.501	16343	17667	0	892
9.665	-46.989	16340	17538	0	892
5.698	-51.497	16340	17442	0	892
2.164	-55.175	16339	17442	0	892
0.397	-58.601	16337	17448	0	892
-0.613	-58.132	16337	17461	0	892
-1.226	-57.627	16337	17493	0	892
-2.885	-58.276	16337	17519	0	892
-4.472	-61.522	16337	17545	0	892
-3.931	-63.072	16337	17558	0	892
-2.380	-63.433	16336	17474	0	892
0.216	-60.476	16334	17300	0	892
2.164	-56.762	16333	17151	0	892
2.813	-53.841	16333	17106	0	892
3.390	-52.903	16332	17074	0	892
3.895	-53.480	16330	16945	0	892
4.472	-53.660	16329	16713	0	892
5.590	-53.336	16326	16513	0	892
6.167	-52.723	16325	16409	0	892
5.409	-52.434	16324	16365	0	892
5.554	-53.264	16321	16262	0	892
3.137	-55.427	16319	16088	0	892
2.524	-55.391	16317	15920	0	892
2.200	-54.021	16315	15797	0	892
4.544	-49.730	16312	15707	0	892
7.609	-44.284	16311	15655	0	892
10.458	-43.238	16308	15610	0	892
11.360	-43.887	16307	15591	0	892
10.963	-48.467	16305	15643	0	892
7.825	-53.011	16305	15726	0	892
3.678	-54.850	16301	15675	0	892
2.488	-54.201	16297	15339	0	892
0.361	-51.965	16291	14862	0	892
0.613	-50.847	16286	14494	0	892
1.190	-50.379	16281	14307	0	892
2.019	-52.110	16276	14217	0	892
2.128	-52.975	16273	14230	0	892
2.452	-53.300	16270	14359	0	892
2.416	-53.191	16268	14578	0	892
2.236	-53.913	16267	14830	0	892
2.272	-54.886	16265	15094	0	892
2.308	-56.365	16265	15372	0	892
3.714	-55.319	16265	15668	0	892
6.167	-52.903	16264	15972	0	892
7.645	-50.198	16264	16159	0	892
9.881	-50.234	16262	16268	0	892
9.376	-50.523	16263	16500	0	892
9.809	-51.605	16264	16874	0	892
10.638	-49.153	16265	17164	0	892
11.648	-44.068	16264	17222	0	892
14.497	-38.370	16263	17125	0	892
15.362	-38.767	16262	17035	0	892
13.487	-42.012	16261	17029	0	892
7.609	-49.044	16261	17093	0	892
4.003	-56.257	16261	17203	0	892
-0.397	-57.880	16262	17300	0	892
-1.442	-57.880	16262	17364	0	892
-0.252	-55.716	16262	17429	0	892
0.974	-55.103	16263	17506	0	892
1.154	-55.572	16264	17584	0	892
1.298	-55.067	16265	17654	0	892
1.190	-54.418	16267	17777	0	892
1.551	-53.264	16270	17938	0	892
2.056	-54.057	16272	18138	0	892
2.813	-57.663	16275	18338	0	892
2.488	-59.611	16279	18506	0	892
2.019	-59.791	16283	18706	0	892
2.200	-58.529	16288	18964	0	892
2.416	-54.850	16293	19248	0	892
2.849	-53.624	16298	19519	0	892
3.714	-54.742	16305	19777	0	892
3.462	-56.076	16311	20042	0	892
1.803	-57.266	16319	20313	0	892
1.551	-58.348	16326	20525	0	892
1.695	-57.086	16332	20590	0	892
1.803	-55.391	16337	20525	0	892
2.669	-52.831	16343	20416	0	892
4.147	-51.028	16348	20235	0	892
4.977	-50.775	16352	19971	0	892
4.904	-51.533	16356	19693	1	912
5.842	-53.155	16361	19513	0	912
6.383	-54.634	16367	19454	0	912
4.760	-55.463	16372	19429	0	912
2.993	-55.463	16378	19313	0	912
1.226	-54.850	16382	19100	0	912
-0.577	-53.913	16387	18951	0	912
-0.433	-52.867	16393	18938	0	912
0.829	-52.038	16400	19016	0	912
1.262	-52.723	16407	19080	0	912
0.469	-54.237	16414	19080	0	912
-1.298	-57.158	16421	19074	0	912
-2.236	-58.096	16428	19113	0	912
-2.092	-58.637	16435	19177	0	912
0.000	-56.545	16443	19184	0	912
1.406	-55.139	16449	19093	0	912
0.541	-54.562	16456	18958	0	912
-0.829	-54.490	16463	18842	0	912
-2.272	-55.463	16469	18790	0	912
-2.452	-55.572	16477	18758	0	912
-0.036	-54.850	16482	18674	0	912
2.633	-53.841	16488	18506	0	912
3.931	-53.805	16494	18248	0	912
4.544	-52.578	16497	17932	0	912
5.590	-51.136	16502	17590	0	912
7.032	-50.090	16505	17261	0	912
8.294	-48.143	16508	16971	0	912
9.304	-47.313	16512	16725	0	912
9.953	-46.232	16515	16487	0	912
10.638	-46.340	16517	16230	0	912
10.133	-46.123	16520	15997	0	912
11.215	-45.041	16524	15836	0	912
9.665	-45.258	16525	15662	0	912
8.907	-45.005	16525	15372	0	912
6.996	-45.763	16526	15023	0	912
7.032	-45.474	16527	14784	0	912
6.383	-45.979	16529	14694	0	912
5.409	-47.638	16530	14662	0	912
4.436	-49.116	16531	14623	0	912
3.606	-53.300	16533	14591	0	912
3.750	-54.814	16535	14643	0	912
3.787	-53.552	16537	14759	0	912
6.203	-49.657	16539	14901	0	912
7.140	-46.520	16542	15010	0	912
8.366	-46.087	16542	15010	0	912
10.674	-48.179	16542	14907	0	912
12.225	-52.001	16543	14752	0	912
11.612	-53.119	16542	14623	0	912
11.648	-52.001	16541	14514	0	912
10.097	-49.730	16540	14417	0	912
7.573	-48.503	16539	14378	0	912
7.645	-48.972	16538	14384	0	912
8.907	-47.890	16537	14294	0	912
11.215	-47.710	16534	14088	0	912
12.802	-47.025	16531	13933	0	912
11.360	-46.484	16530	13920	0	912
8.943	-48.828	16529	14023	0	912
5.914	-50.270	16529	14191	0	912
4.940	-49.766	16529	14423	0	912
6.022	-49.802	16529	14668	0	912
6.347	-49.477	16529	14894	0	912
3.787	-52.723	16529	15107	0	912
0.613	-55.932	16529	15281	0	912
-2.128	-57.266	16529	15410	0	912
-2.488	-57.591	16529	15533	0	912
-0.577	-54.670	16530	15707	0	912
2.164	-52.398	16530	15862	0	912
2.813	-50.559	16529	15881	0	912
3.462	-50.631	16527	15772	0	912
2.488	-51.352	16525	15688	0	912
1.046	-52.254	16525	15701	0	912
0.721	-52.362	16524	15752	0	912
1.226	-51.352	16522	15765	0	912
2.380	-48.792	16521	15694	0	912
4.436	-46.953	16519	15610	0	912
5.626	-45.799	16517	15552	0	912
7.681	-45.582	16515	15552	0	912
7.825	-45.438	16515	15591	0	912
9.304	-44.104	16514	15636	0	912
10.169	-43.779	16512	15694	0	912
10.638	-42.734	16511	15784	0	912
10.097	-44.825	16510	15875	0	912
9.268	-46.953	16510	15926	0	912
7.681	-49.946	16508	15926	0	912
7.248	-49.116	16508	15939	0	912
7.357	-45.691	16507	16010	0	912
9.088	-40.389	16507	16107	0	912
9.484	-36.747	16506	16210	0	912
9.376	-39.272	16505	16288	0	912
6.275	-45.041	16505	16352	0	912
4.364	-51.677	16505	16429	0	912
3.426	-55.247	16504	16506	0	912
5.121	-54.778	16504	16551	0	912
6.347	-51.244	16503	16551	0	912
7.285	-48.972	16502	16454	0	912
5.481	-48.900	16498	16107	0	912
2.308	-50.956	16491	15494	0	912
1.118	-52.038	16484	14849	0	912
1.298	-50.703	16479	14423	0	912
4.003	-48.107	16475	14301	0	912
8.727	-43.635	16471	14320	0	912
13.235	-41.399	16466	14262	0	912
17.382	-40.966	16462	14114	0	912
19.149	-42.517	16457	14023	0	912
19.726	-43.383	16453	14023	0	912
18.031	-43.383	16448	13946	0	912
15.254	-44.681	16441	13726	0	912
12.009	-45.078	16435	13501	0	912
9.989	-46.592	16430	13443	0	912
9.196	-46.953	16426	13591	0	912
8.655	-43.527	16423	13888	0	912
10.242	-40.389	16420	14223	0	912
11.071	-38.262	16418	14533	0	912
13.343	-37.793	16417	14855	0	912
16.192	-40.281	16415	15230	0	912
15.182	-45.041	16415	15655	0	912
12.405	-47.241	16416	16088	0	912
8.258	-48.359	16415	16454	0	912
4.147	-47.962	16415	16784	0	912
5.842	-44.248	16416	17054	0	912
9.124	-42.553	16416	17287	0	912
12.946	-42.048	16416	17480	0	912
12.838	-44.104	16416	17629	0	912
11.720	-45.041	16416	17745	0	912
10.674	-45.727	16417	17842	0	912
9.340	-43.671	16415	17829	0	912
10.133	-44.501	16413	17603	0	912
10.242	-43.851	16410	17280	0	912
9.629	-45.799	16406	16984	0	912
8.006	-44.933	16401	16584	0	912
9.412	-43.599	16395	16004	0	912
10.061	-40.714	16389	15494	0	912
12.441	-40.101	16385	15236	0	912
13.487	-40.642	16382	15165	0	912
12.405	-43.419	16379	15159	0	912
7.934	-48.395	16375	15101	0	912
2.849	-50.379	16372	15023	0	912
-2.019	-51.028	16369	15043	0	912
-4.472	-50.739	16368	15191	0	912
-5.950	-50.090	16365	15404	0	912
-6.131	-50.631	16364	15552	0	912
-5.626	-51.677	16361	15604	0	912
-6.563	-51.497	16359	15662	0	912
-5.409	-50.270	16358	15823	0	912
-4.688	-48.792	16358	16049	0	912
-5.554	-50.054	16356	16255	0	912
-5.049	-52.578	16355	16396	0	912
-5.914	-54.165	16354	16500	0	912
-7.212	-55.896	16353	16538	0	912
-7.573	-55.788	16351	16538	0	912
-6.275	-56.040	16350	16577	0	912
-5.121	-54.598	16350	16674	0	912
-3.029	-52.542	16349	16771	0	912
-1.298	-50.198	16349	16854	0	912
-0.829	-46.700	16347	16919	0	912
-0.577	-45.294	16348	16984	0	912
0.072	-46.664	16347	17067	0	912
1.370	-47.133	16347	17080	0	912
3.318	-48.756	16344	16964	0	912
5.806	-47.999	16343	16796	0	912
6.924	-47.349	16341	16680	0	912
8.258	-45.366	16340	16596	0	912
6.022	-44.861	16338	16564	0	912
4.580	-45.258	16337	16525	0	912
2.705	-46.989	16334	16378	0	912
2.164	-50.090	16331	16126	0	912
2.452	-49.946	16329	15946	0	912
3.354	-48.972	16326	15901	0	912
3.173	-47.133	16325	15888	0	912
3.570	-47.061	16322	15784	0	912
2.669	-48.684	16318	15617	0	912
0.938	-52.759	16316	15494	0	912
0.649	-54.706	16313	15436	0	912
-0.144	-53.877	16311	15404	0	912
-0.036	-52.038	16309	15384	0	912
1.010	-51.100	16306	15372	0	912
0.036	-50.847	16303	15404	0	912
-1.587	-52.903	16302	15533	0	912
-3.390	-54.562	16302	15739	0	912
-3.354	-56.149	16301	15926	0	912
-4.111	-56.004	16300	15997	0	912
-4.472	-56.834	16298	15959	0	912
-6.275	-58.817	16295	15907	0	912
-8.547	-60.151	16295	15959	0	912
-10.819	-61.810	16293	16120	0	912
-11.684	-61.955	16293	16281	0	912
-11.035	-61.233	16293	16429	0	912
-9.520	-59.611	16293	16622	0	912
-5.698	-56.762	16294	16842	0	912
-2.308	-53.083	16295	17048	0	912
0.541	-48.720	16296	17216	0	912
1.190	-46.232	16297	17345	0	912
-0.793	-47.205	16298	17435	0	912
-2.236	-49.874	16298	17487	0	912
-2.849	-53.191	16298	17474	0	912
-1.947	-54.382	16298	17416	0	912
-0.072	-54.057	16298	17345	0	912
1.803	-52.723	16297	17267	0	912
2.056	-52.867	16297	17151	0	912
1.262	-52.795	16295	16945	0	912
0.577	-53.191	16291	16596	0	912
-0.397	-54.778	16288	16210	0	912
-0.902	-54.922	16285	15907	0	912
-2.128	-54.309	16281	15662	0	912
-2.777	-53.841	16278	15378	0	912
-2.957	-53.300	16274	15133	0	912
-2.560	-53.480	16271	15023	0	912
-1.911	-55.247	16269	14991	0	912
-2.092	-56.653	16265	14926	0	912
-2.056	-55.103	16262	14817	0	912
-1.983	-52.723	16259	14765	0	912
-3.029	-50.307	16258	14817	0	912
-3.462	-48.864	16255	14920	0	912
-4.147	-48.612	16253	15030	0	912
-3.498	-48.720	16252	15133	0	912
-2.164	-46.989	16250	15268	0	912
1.839	-45.871	16250	15494	0	912
3.462	-46.051	16251	15804	0	912
4.652	-45.330	16251	16146	0	912
4.472	-47.205	16252	16467	0	912
4.580	-48.215	16254	16803	0	912
3.714	-47.349	16256	17158	0	912
4.652	-46.268	16258	17480	0	912
4.724	-43.996	16260	17674	0	912
5.986	-40.786	16262	17790	0	912
6.455	-39.812	16264	17990	0	912
6.635	-40.534	16267	18261	0	912
5.842	-43.599	16270	18519	0	912
5.193	-45.582	16274	18732	0	912
3.750	-48.900	16278	18951	0	912
2.813	-49.513	16283	19190	0	912
1.839	-51.100	16286	19300	0	912
1.947	-51.641	16287	19093	0	912
2.560	-52.506	16288	18764	0	912
5.409	-52.146	16291	18661	0	912
7.465	-49.189	16295	18809	0	912
8.907	-44.104	16300	19048	1	944
9.520	-40.317	16305	19325	0	944
7.068	-39.740	16314	19609	0	944
5.698	-42.625	16320	19925	0	944
3.895	-49.405	16329	20300	0	944
3.787	-53.444	16338	20700	0	944
5.049	-54.778	16347	21054	0	944
5.662	-53.949	16357	21313	0	944
6.780	-51.893	16367	21525	0	944
6.347	-50.487	16376	21719	0	944
6.996	-50.487	16385	21861	0	944
6.347	-50.992	16395	21919	0	944
5.409	-51.388	16403	21816	0	944
3.967	-52.038	16409	21454	0	944
3.101	-52.326	16414	20945	0	944
2.560	-51.893	16421	20532	0	944
3.137	-51.136	16428	20261	0	944
5.517	-50.487	16433	19990	0	944
5.590	-50.054	16439	19629	0	944
4.508	-48.576	16442	19061	0	944
4.039	-48.864	16442	18235	0	944
3.246	-50.270	16444	17409	0	944
2.957	-52.001	16445	16861	0	944
3.570	-53.516	16448	16538	0	944
2.921	-53.913	16451	16268	0	944
1.515	-52.867	16452	15959	0	944
0.902	-50.559	16455	15681	0	944
0.793	-49.838	16459	15552	0	944
1.767	-49.946	16461	15552	0	944
2.416	-49.910	16466	15591	0	944
1.262	-52.290	16468	15533	0	944
0.829	-52.831	16470	15384	0	944
0.108	-53.155	16473	15288	0	944
0.397	-51.388	16477	15326	0	944
1.839	-49.225	16480	15462	0	944
3.101	-47.926	16484	15617	0	944
4.075	-46.412	16487	15720	0	944
7.140	-46.845	16491	15823	0	944
8.799	-46.015	16496	15965	0	944
13.018	-43.779	16499	16107	0	944
15.326	-40.966	16503	16204	0	944
17.382	-38.586	16506	16204	0	944
17.743	-36.098	16508	16114	0	944
18.247	-36.242	16510	15972	0	944
19.401	-35.990	16512	15894	0	944
20.519	-34.944	16514	15868	0	944
22.683	-32.312	16515	15791	0	944
22.899	-29.174	16516	15694	0	944
21.926	-27.948	16518	15643	0	944
20.375	-29.427	16519	15636	0	944
18.572	-33.682	16521	15552	0	944
17.598	-37.649	16521	15430	0	944
17.851	-39.704	16522	15384	0	944
17.598	-38.478	16523	15410	0	944
17.959	-36.567	16523	15404	0	944
17.129	-33.970	16524	15359	0	944
16.841	-32.780	16524	15320	0	944
15.975	-32.600	16525	15326	0	944
16.192	-33.898	16525	15314	0	944
17.706	-35.485	16524	15178	0	944
20.375	-35.593	16522	14952	0	944
23.765	-35.052	16522	14797	0	944
25.424	-34.043	16520	14714	0	944
23.693	-33.357	16517	14514	0	944
20.627	-34.439	16512	14114	0	944
16.372	-37.829	16507	13701	0	944
14.497	-40.534	16503	13475	0	944
13.487	-42.661	16498	13307	0	944
14.821	-42.301	16493	13030	0	944
14.569	-42.301	16487	12714	0	944
12.261	-43.419	16481	12526	0	944
10.061	-43.815	16477	12539	0	944
5.734	-46.556	16473	12707	0	944
2.344	-47.818	16472	12978	0	944
0.433	-50.739	16468	13301	0	944
-0.144	-53.191	16467	13617	0	944
-0.361	-55.103	16466	13978	0	944
1.046	-55.031	16466	14449	0	944
1.695	-51.857	16467	15030	0	944
3.173	-48.900	16470	15636	1	316
3.678	-46.556	16471	16165	0	316
5.590	-45.655	16473	16616	0	316
6.708	-45.402	16475	17054	0	316
9.268	-44.140	16477	17442	0	316
8.511	-42.806	16480	17745	0	316
7.825	-43.130	16482	17984	0	316
4.977	-43.996	16484	18177	0	316
1.479	-45.258	16486	18313	0	316
0.433	-47.674	16486	18351	0	316
1.803	-47.746	16487	18287	0	316
4.472	-48.035	16487	18177	0	316
6.022	-45.114	16487	18061	0	316
5.301	-44.464	16487	17919	0	316
3.823	-44.428	16487	17725	0	316
-0.685	-48.107	16485	17487	0	316
-2.633	-52.038	16484	17242	0	316
-1.515	-53.624	16483	17035	0	316
0.252	-51.100	16482	16867	0	316
3.354	-46.087	16480	16661	0	316
4.255	-43.707	16478	16384	0	316
1.731	-45.041	16476	16114	0	316
-3.210	-50.559	16473	15868	0	316
-7.934	-56.581	16470	15643	0	316
-10.999	-59.719	16468	15436	0	316
-9.268	-60.512	16464	15236	0	316
-6.708	-56.942	16461	15068	0	316
-3.426	-52.939	16460	14991	0	316
-1.190	-50.956	16457	14984	0	316
-1.010	-49.657	16456	14984	0	316
-3.029	-51.028	16453	14997	0	316
-4.616	-53.480	16451	15030	0	316
-5.193	-55.499	16450	15107	0	316
-4.219	-56.690	16449	15249	0	316
-0.938	-56.293	16447	15410	0	316
0.433	-55.103	16446	15514	0	316
2.200	-51.929	16445	15565	0	316
2.236	-48.828	16443	15591	0	316
1.370	-47.061	16442	15630	0	316
1.370	-46.736	16440	15610	0	316
0.577	-48.395	16434	15346	0	316
-0.865	-51.028	16425	14681	0	316
-1.370	-53.336	16416	13817	0	316
-0.938	-52.578	16406	13114	0	316
1.334	-48.720	16398	12701	0	316
3.029	-44.356	16391	12552	0	316
4.940	-41.003	16386	12610	0	316
3.318	-42.842	16382	12772	0	316
1.082	-47.061	16376	12914	0	316
-2.164	-51.749	16371	13036	0	316
-6.094	-55.355	16368	13288	0	316
-6.816	-56.040	16365	13707	0	316
-7.068	-55.932	16363	14210	0	316
-7.068	-55.427	16361	14662	0	316
-5.337	-54.093	16359	15017	0	316
-1.983	-52.506	16358	15346	0	316
-0.361	-50.487	16357	15739	0	316
3.750	-49.080	16356	16152	0	316
5.157	-49.946	16356	16500	0	316
4.291	-50.884	16355	16764	0	316
2.849	-52.290	16355	16977	0	316
0.000	-52.182	16353	17080	0	316
-1.442	-51.280	16350	17061	0	316
-1.983	-49.369	16348	17029	0	316
-1.010	-46.051	16347	17054	0	316
0.793	-44.969	16345	17132	0	316
3.606	-42.337	16344	17248	0	316
4.796	-41.580	16345	17409	0	316
6.780	-41.471	16344	17584	0	316
6.960	-41.471	16344	17635	0	316
8.979	-40.642	16340	17416	0	316
11.720	-37.757	16336	16984	0	316
17.093	-33.033	16332	16629	0	316
21.529	-28.669	16330	16480	0	316
24.775	-25.929	16328	16454	0	316
23.801	-25.929	16326	16500	0	316
20.591	-30.725	16325	16564	0	316
14.894	-35.629	16324	16584	0	316
10.206	-41.580	16322	16571	0	316
5.842	-45.618	16321	16616	0	316
0.793	-48.864	16321	16745	0	316
-2.993	-49.477	16321	16887	0	316
-6.816	-51.605	16319	16938	0	316
-8.222	-51.641	16319	16906	0	316
-7.104	-50.703	16319	16913	0	316
-2.741	-47.890	16319	17016	0	316
0.902	-44.645	16319	17164	0	316
3.354	-43.491	16319	17254	0	316
2.921	-44.140	16317	17113	0	316
0.252	-46.881	16312	16654	0	316
-1.010	-48.071	16307	15959	0	316
0.685	-44.320	16300	15236	0	316
2.921	-39.668	16293	14720	0	316
7.285	-35.810	16287	14430	0	316
7.789	-35.377	16284	14333	0	316
6.780	-37.937	16281	14455	0	316
7.321	-40.353	16280	14746	0	316
8.871	-41.724	16279	15101	0	316
10.891	-39.560	16280	15430	0	316
11.468	-38.983	16280	15733	0	316
10.242	-41.327	16280	16055	0	316
7.321	-46.051	16281	16396	0	316
4.111	-49.838	16282	16693	0	316
3.210	-52.614	16283	16919	0	316
1.587	-53.011	16284	17119	0	316
-0.216	-52.470	16285	17325	0	316
-3.462	-53.552	16286	17493	0	316
-5.662	-54.418	16287	17584	0	316
-8.294	-54.742	16287	17622	0	316
-10.242	-52.795	16288	17635	0	316
-9.881	-51.064	16288	17635	0	316
-10.530	-50.343	16287	17532	0	316
-7.862	-50.487	16286	17371	0	316
-5.481	-49.621	16287	17351	0	316
-2.957	-47.710	16289	17493	0	316
-0.108	-44.392	16289	17571	0	316
1.551	-42.157	16289	17435	0	316
2.524	-39.993	16288	17203	0	316
5.229	-40.173	16288	17054	0	316
6.491	-40.209	16287	17003	0	316
9.989	-41.003	16286	16906	0	316
10.133	-40.930	16284	16642	0	316
11.179	-41.940	16281	16281	0	316
11.107	-41.039	16278	15901	0	316
8.871	-38.839	16275	15591	0	316
8.475	-37.541	16273	15475	0	316
7.104	-35.629	16273	15578	0	316
7.789	-35.052	16273	15797	0	316
9.160	-37.288	16275	16101	0	316
9.701	-41.507	16279	16506	0	316
8.871	-46.304	16283	17042	0	316
6.131	-51.280	16288	17648	0	316
1.767	-52.939	16295	18235	0	316
-0.361	-52.470	16302	18777	0	316
-1.262	-49.874	16309	19325	0	316
-0.325	-49.153	16317	19893	0	316
0.829	-47.926	16326	20429	0	316
2.633	-49.874	16335	20900	0	316
3.318	-51.713	16345	21325	0	316
2.560	-53.336	16355	21751	0	316
1.190	-54.995	16365	22119	0	316
0.252	-55.824	16376	22396	0	316
1.046	-54.706	16385	22590	0	316
2.596	-52.759	16394	22622	0	316
6.022	-48.648	16401	22409	0	316
7.970	-44.609	16408	22009	0	316
7.573	-41.543	16413	21545	0	316
8.186	-38.911	16419	21119	0	316
6.960	-37.649	16426	20771	1	592
8.943	-37.036	16431	20396	0	592
9.304	-36.423	16434	19874	0	592
11.828	-37.324	16438	19254	0	592
13.559	-37.721	16442	18713	0	592
13.271	-37.649	16445	18325	0	592
15.543	-34.043	16450	18022	0	592
16.156	-30.292	16454	17751	0	592
16.985	-26.361	16458	17480	0	592
15.687	-28.237	16462	17235	0	592
13.776	-32.744	16466	17048	0	592
9.268	-38.839	16471	16906	0	592
6.094	-44.248	16475	16784	0	592
4.291	-46.448	16480	16661	0	592
1.154	-48.936	16484	16551	0	592
-0.938	-51.208	16487	16416	0	592
-2.200	-52.975	16491	16281	0	592
-1.406	-52.506	16493	16139	0	592
2.308	-48.936	16496	15991	0	592
4.796	-45.799	16500	15868	0	592
8.222	-43.707	16502	15791	0	592
8.475	-42.409	16505	15668	0	592
10.350	-42.481	16505	15384	0	592
12.117	-41.039	16504	15004	0	592
14.281	-39.019	16506	14746	0	592
14.136	-37.000	16506	14675	0	592
14.605	-36.459	16508	14668	0	592
13.631	-36.351	16509	14655	0	592
14.713	-36.747	16510	14662	0	592
14.930	-38.262	16511	14688	0	592
13.776	-40.426	16513	14720	0	592
12.730	-41.327	16513	14675	0	592
9.052	-42.337	16512	14526	0	592
8.763	-40.822	16512	14410	0	592
8.799	-38.118	16512	14423	0	592
9.953	-36.242	16513	14526	0	592
9.989	-35.593	16513	14604	0	592
9.304	-37.793	16512	14617	0	592
6.816	-41.616	16513	14649	0	592
5.770	-45.041	16513	14739	0	592
4.977	-47.854	16514	14849	0	592
3.318	-47.962	16514	14901	0	592
2.019	-48.431	16512	14875	0	592
0.252	-47.349	16512	14875	0	592
0.505	-47.025	16512	14978	0	592
2.596	-45.402	16512	15107	0	592
6.383	-43.671	16512	15191	0	592
7.970	-42.806	16510	15204	0	592
9.809	-42.445	16509	15133	0	592
10.602	-42.084	16507	15017	0	592
